Frequency (Hz)
   0.0625
   0.1250
   0.1875
   0.2500
   0.3125
   0.3750
   0.4375
   0.5000
   0.5625
   0.6250
   0.6875
   0.7500
   0.8125
   0.8750
   0.9375
   1.0000
   1.0625
   1.1250
   1.1875
   1.2500
   1.3125
   1.3750
   1.4375
   1.5000
   1.5625
   1.6250
   1.6875
   1.7500
   1.8125
   1.8750
   1.9375
   2.0000
   2.0625
   2.1250
   2.1875
   2.2500
   2.3125
   2.3750
   2.4375
   2.5000
   2.5625
   2.6250
   2.6875
   2.7500
   2.8125
   2.8750
   2.9375
   3.0000
   3.0625
   3.1250
   3.1875
   3.2500
   3.3125
   3.3750
   3.4375
   3.5000
   3.5625
   3.6250
   3.6875
   3.7500
   3.8125
   3.8750
   3.9375
   4.0000
   4.0625
   4.1250
   4.1875
   4.2500
   4.3125
   4.3750
   4.4375
   4.5000
   4.5625
   4.6250
   4.6875
   4.7500
   4.8125
   4.8750
   4.9375
   5.0000
   5.0625
   5.1250
   5.1875
   5.2500
   5.3125
   5.3750
   5.4375
   5.5000
   5.5625
   5.6250
   5.6875
   5.7500
   5.8125
   5.8750
   5.9375
   6.0000
   6.0625
   6.1250
   6.1875
   6.2500
   6.3125
   6.3750
   6.4375
   6.5000
   6.5625
   6.6250
   6.6875
   6.7500
   6.8125
   6.8750
   6.9375
   7.0000
   7.0625
   7.1250
   7.1875
   7.2500
   7.3125
   7.3750
   7.4375
   7.5000
   7.5625
   7.6250
   7.6875
   7.7500
   7.8125
   7.8750
   7.9375
   8.0000
   8.0625
   8.1250
   8.1875
   8.2500
   8.3125
   8.3750
   8.4375
   8.5000
   8.5625
   8.6250
   8.6875
   8.7500
   8.8125
   8.8750
   8.9375
   9.0000
   9.0625
   9.1250
   9.1875
   9.2500
   9.3125
   9.3750
   9.4375
   9.5000
   9.5625
   9.6250
   9.6875
   9.7500
   9.8125
   9.8750
   9.9375
  10.0000
  10.0625
  10.1250
  10.1875
  10.2500
  10.3125
  10.3750
  10.4375
  10.5000
  10.5625
  10.6250
  10.6875
  10.7500
  10.8125
  10.8750
  10.9375
  11.0000
  11.0625
  11.1250
  11.1875
  11.2500
  11.3125
  11.3750
  11.4375
  11.5000
  11.5625
  11.6250
  11.6875
  11.7500
  11.8125
  11.8750
  11.9375
  12.0000
  12.0625
  12.1250
  12.1875
  12.2500
  12.3125
  12.3750
  12.4375
  12.5000
  12.5625
  12.6250
  12.6875
  12.7500
  12.8125
  12.8750
  12.9375
  13.0000
  13.0625
  13.1250
  13.1875
  13.2500
  13.3125
  13.3750
  13.4375
  13.5000
  13.5625
  13.6250
  13.6875
  13.7500
  13.8125
  13.8750
  13.9375
  14.0000
  14.0625
  14.1250
  14.1875
  14.2500
  14.3125
  14.3750
  14.4375
  14.5000
  14.5625
  14.6250
  14.6875
  14.7500
  14.8125
  14.8750
  14.9375
  15.0000
  15.0625
  15.1250
  15.1875
  15.2500
  15.3125
  15.3750
  15.4375
  15.5000
  15.5625
  15.6250
  15.6875
  15.7500
  15.8125
  15.8750
  15.9375
  16.0000
  16.0625
  16.1250
  16.1875
  16.2500
  16.3125
  16.3750
  16.4375
  16.5000
  16.5625
  16.6250
  16.6875
  16.7500
  16.8125
  16.8750
  16.9375
  17.0000
  17.0625
  17.1250
  17.1875
  17.2500
  17.3125
  17.3750
  17.4375
  17.5000
  17.5625
  17.6250
  17.6875
  17.7500
  17.8125
  17.8750
  17.9375
  18.0000
  18.0625
  18.1250
  18.1875
  18.2500
  18.3125
  18.3750
  18.4375
  18.5000
  18.5625
  18.6250
  18.6875
  18.7500
  18.8125
  18.8750
  18.9375
  19.0000
  19.0625
  19.1250
  19.1875
  19.2500
  19.3125
  19.3750
  19.4375
  19.5000
  19.5625
  19.6250
  19.6875
  19.7500
  19.8125
  19.8750
  19.9375
  20.0000
  20.0625
  20.1250
  20.1875
  20.2500
  20.3125
  20.3750
  20.4375
  20.5000
  20.5625
  20.6250
  20.6875
  20.7500
  20.8125
  20.8750
  20.9375
  21.0000
  21.0625
  21.1250
  21.1875
  21.2500
  21.3125
  21.3750
  21.4375
  21.5000
  21.5625
  21.6250
  21.6875
  21.7500
  21.8125
  21.8750
  21.9375
  22.0000
  22.0625
  22.1250
  22.1875
  22.2500
  22.3125
  22.3750
  22.4375
  22.5000
  22.5625
  22.6250
  22.6875
  22.7500
  22.8125
  22.8750
  22.9375
  23.0000
  23.0625
  23.1250
  23.1875
  23.2500
  23.3125
  23.3750
  23.4375
  23.5000
  23.5625
  23.6250
  23.6875
  23.7500
  23.8125
  23.8750
  23.9375
  24.0000
  24.0625
  24.1250
  24.1875
  24.2500
  24.3125
  24.3750
  24.4375
  24.5000
  24.5625
  24.6250
  24.6875
  24.7500
  24.8125
  24.8750
  24.9375
  25.0000
  25.0625
  25.1250
  25.1875
  25.2500
  25.3125
  25.3750
  25.4375
  25.5000
  25.5625
  25.6250
  25.6875
  25.7500
  25.8125
  25.8750
  25.9375
  26.0000
  26.0625
  26.1250
  26.1875
  26.2500
  26.3125
  26.3750
  26.4375
  26.5000
  26.5625
  26.6250
  26.6875
  26.7500
  26.8125
  26.8750
  26.9375
  27.0000
  27.0625
  27.1250
  27.1875
  27.2500
  27.3125
  27.3750
  27.4375
  27.5000
  27.5625
  27.6250
  27.6875
  27.7500
  27.8125
  27.8750
  27.9375
  28.0000
  28.0625
  28.1250
  28.1875
  28.2500
  28.3125
  28.3750
  28.4375
  28.5000
  28.5625
  28.6250
  28.6875
  28.7500
  28.8125
  28.8750
  28.9375
  29.0000
  29.0625
  29.1250
  29.1875
  29.2500
  29.3125
  29.3750
  29.4375
  29.5000
  29.5625
  29.6250
  29.6875
  29.7500
  29.8125
  29.8750
  29.9375
  30.0000
  30.0625
  30.1250
  30.1875
  30.2500
  30.3125
  30.3750
  30.4375
  30.5000
  30.5625
  30.6250
  30.6875
  30.7500
  30.8125
  30.8750
  30.9375
  31.0000
  31.0625
  31.1250
  31.1875
  31.2500
  31.3125
  31.3750
  31.4375
  31.5000
  31.5625
  31.6250
  31.6875
  31.7500
  31.8125
  31.8750
  31.9375
  32.0000
  32.0625
  32.1250
  32.1875
  32.2500
  32.3125
  32.3750
  32.4375
  32.5000
  32.5625
  32.6250
  32.6875
  32.7500
  32.8125
  32.8750
  32.9375
  33.0000
  33.0625
  33.1250
  33.1875
  33.2500
  33.3125
  33.3750
  33.4375
  33.5000
  33.5625
  33.6250
  33.6875
  33.7500
  33.8125
  33.8750
  33.9375
  34.0000
  34.0625
  34.1250
  34.1875
  34.2500
  34.3125
  34.3750
  34.4375
  34.5000
  34.5625
  34.6250
  34.6875
  34.7500
  34.8125
  34.8750
  34.9375
  35.0000
  35.0625
  35.1250
  35.1875
  35.2500
  35.3125
  35.3750
  35.4375
  35.5000
  35.5625
  35.6250
  35.6875
  35.7500
  35.8125
  35.8750
  35.9375
  36.0000
  36.0625
  36.1250
  36.1875
  36.2500
  36.3125
  36.3750
  36.4375
  36.5000
  36.5625
  36.6250
  36.6875
  36.7500
  36.8125
  36.8750
  36.9375
  37.0000
  37.0625
  37.1250
  37.1875
  37.2500
  37.3125
  37.3750
  37.4375
  37.5000
  37.5625
  37.6250
  37.6875
  37.7500
  37.8125
  37.8750
  37.9375
  38.0000
  38.0625
  38.1250
  38.1875
  38.2500
  38.3125
  38.3750
  38.4375
  38.5000
  38.5625
  38.6250
  38.6875
  38.7500
  38.8125
  38.8750
  38.9375
  39.0000
  39.0625
  39.1250
  39.1875
  39.2500
  39.3125
  39.3750
  39.4375
  39.5000
  39.5625
  39.6250
  39.6875
  39.7500
  39.8125
  39.8750
  39.9375
  40.0000
  40.0625
  40.1250
  40.1875
  40.2500
  40.3125
  40.3750
  40.4375
  40.5000
  40.5625
  40.6250
  40.6875
  40.7500
  40.8125
  40.8750
  40.9375
  41.0000
  41.0625
  41.1250
  41.1875
  41.2500
  41.3125
  41.3750
  41.4375
  41.5000
  41.5625
  41.6250
  41.6875
  41.7500
  41.8125
  41.8750
  41.9375
  42.0000
  42.0625
  42.1250
  42.1875
  42.2500
  42.3125
  42.3750
  42.4375
  42.5000
  42.5625
  42.6250
  42.6875
  42.7500
  42.8125
  42.8750
  42.9375
  43.0000
  43.0625
  43.1250
  43.1875
  43.2500
  43.3125
  43.3750
  43.4375
  43.5000
  43.5625
  43.6250
  43.6875
  43.7500
  43.8125
  43.8750
  43.9375
  44.0000
  44.0625
  44.1250
  44.1875
  44.2500
  44.3125
  44.3750
  44.4375
  44.5000
  44.5625
  44.6250
  44.6875
  44.7500
  44.8125
  44.8750
  44.9375
  45.0000
  45.0625
  45.1250
  45.1875
  45.2500
  45.3125
  45.3750
  45.4375
  45.5000
  45.5625
  45.6250
  45.6875
  45.7500
  45.8125
  45.8750
  45.9375
  46.0000
  46.0625
  46.1250
  46.1875
  46.2500
  46.3125
  46.3750
  46.4375
  46.5000
  46.5625
  46.6250
  46.6875
  46.7500
  46.8125
  46.8750
  46.9375
  47.0000
  47.0625
  47.1250
  47.1875
  47.2500
  47.3125
  47.3750
  47.4375
  47.5000
  47.5625
  47.6250
  47.6875
  47.7500
  47.8125
  47.8750
  47.9375
  48.0000
  48.0625
  48.1250
  48.1875
  48.2500
  48.3125
  48.3750
  48.4375
  48.5000
  48.5625
  48.6250
  48.6875
  48.7500
  48.8125
  48.8750
  48.9375
  49.0000
  49.0625
  49.1250
  49.1875
  49.2500
  49.3125
  49.3750
  49.4375
  49.5000
  49.5625
  49.6250
  49.6875
  49.7500
  49.8125
  49.8750
  49.9375
  50.0000
  50.0625
  50.1250
  50.1875
  50.2500
  50.3125
  50.3750
  50.4375
  50.5000
  50.5625
  50.6250
  50.6875
  50.7500
  50.8125
  50.8750
  50.9375
  51.0000
  51.0625
  51.1250
  51.1875
  51.2500
  51.3125
  51.3750
  51.4375
  51.5000
  51.5625
  51.6250
  51.6875
  51.7500
  51.8125
  51.8750
  51.9375
  52.0000
  52.0625
  52.1250
  52.1875
  52.2500
  52.3125
  52.3750
  52.4375
  52.5000
  52.5625
  52.6250
  52.6875
  52.7500
  52.8125
  52.8750
  52.9375
  53.0000
  53.0625
  53.1250
  53.1875
  53.2500
  53.3125
  53.3750
  53.4375
  53.5000
  53.5625
  53.6250
  53.6875
  53.7500
  53.8125
  53.8750
  53.9375
  54.0000
  54.0625
  54.1250
  54.1875
  54.2500
  54.3125
  54.3750
  54.4375
  54.5000
  54.5625
  54.6250
  54.6875
  54.7500
  54.8125
  54.8750
  54.9375
  55.0000
  55.0625
  55.1250
  55.1875
  55.2500
  55.3125
  55.3750
  55.4375
  55.5000
  55.5625
  55.6250
  55.6875
  55.7500
  55.8125
  55.8750
  55.9375
  56.0000
  56.0625
  56.1250
  56.1875
  56.2500
  56.3125
  56.3750
  56.4375
  56.5000
  56.5625
  56.6250
  56.6875
  56.7500
  56.8125
  56.8750
  56.9375
  57.0000
  57.0625
  57.1250
  57.1875
  57.2500
  57.3125
  57.3750
  57.4375
  57.5000
  57.5625
  57.6250
  57.6875
  57.7500
  57.8125
  57.8750
  57.9375
  58.0000
  58.0625
  58.1250
  58.1875
  58.2500
  58.3125
  58.3750
  58.4375
  58.5000
  58.5625
  58.6250
  58.6875
  58.7500
  58.8125
  58.8750
  58.9375
  59.0000
  59.0625
  59.1250
  59.1875
  59.2500
  59.3125
  59.3750
  59.4375
  59.5000
  59.5625
  59.6250
  59.6875
  59.7500
  59.8125
  59.8750
  59.9375
  60.0000
  60.0625
  60.1250
  60.1875
  60.2500
  60.3125
  60.3750
  60.4375
  60.5000
  60.5625
  60.6250
  60.6875
  60.7500
  60.8125
  60.8750
  60.9375
  61.0000
  61.0625
  61.1250
  61.1875
  61.2500
  61.3125
  61.3750
  61.4375
  61.5000
  61.5625
  61.6250
  61.6875
  61.7500
  61.8125
  61.8750
  61.9375
  62.0000
  62.0625
  62.1250
  62.1875
  62.2500
  62.3125
  62.3750
  62.4375
  62.5000
  62.5625
  62.6250
  62.6875
  62.7500
  62.8125
  62.8750
  62.9375
  63.0000
  63.0625
  63.1250
  63.1875
  63.2500
  63.3125
  63.3750
  63.4375
  63.5000
  63.5625
  63.6250
  63.6875
  63.7500
  63.8125
  63.8750
  63.9375
  64.0000
  64.0625
  64.1250
  64.1875
  64.2500
  64.3125
  64.3750
  64.4375
  64.5000
  64.5625
  64.6250
  64.6875
  64.7500
  64.8125
  64.8750
  64.9375
  65.0000
  65.0625
  65.1250
  65.1875
  65.2500
  65.3125
  65.3750
  65.4375
  65.5000
  65.5625
  65.6250
  65.6875
  65.7500
  65.8125
  65.8750
  65.9375
  66.0000
  66.0625
  66.1250
  66.1875
  66.2500
  66.3125
  66.3750
  66.4375
  66.5000
  66.5625
  66.6250
  66.6875
  66.7500
  66.8125
  66.8750
  66.9375
  67.0000
  67.0625
  67.1250
  67.1875
  67.2500
  67.3125
  67.3750
  67.4375
  67.5000
  67.5625
  67.6250
  67.6875
  67.7500
  67.8125
  67.8750
  67.9375
  68.0000
  68.0625
  68.1250
  68.1875
  68.2500
  68.3125
  68.3750
  68.4375
  68.5000
  68.5625
  68.6250
  68.6875
  68.7500
  68.8125
  68.8750
  68.9375
  69.0000
  69.0625
  69.1250
  69.1875
  69.2500
  69.3125
  69.3750
  69.4375
  69.5000
  69.5625
  69.6250
  69.6875
  69.7500
  69.8125
  69.8750
  69.9375
  70.0000
  70.0625
  70.1250
  70.1875
  70.2500
  70.3125
  70.3750
  70.4375
  70.5000
  70.5625
  70.6250
  70.6875
  70.7500
  70.8125
  70.8750
  70.9375
  71.0000
  71.0625
  71.1250
  71.1875
  71.2500
  71.3125
  71.3750
  71.4375
  71.5000
  71.5625
  71.6250
  71.6875
  71.7500
  71.8125
  71.8750
  71.9375
  72.0000
  72.0625
  72.1250
  72.1875
  72.2500
  72.3125
  72.3750
  72.4375
  72.5000
  72.5625
  72.6250
  72.6875
  72.7500
  72.8125
  72.8750
  72.9375
  73.0000
  73.0625
  73.1250
  73.1875
  73.2500
  73.3125
  73.3750
  73.4375
  73.5000
  73.5625
  73.6250
  73.6875
  73.7500
  73.8125
  73.8750
  73.9375
  74.0000
  74.0625
  74.1250
  74.1875
  74.2500
  74.3125
  74.3750
  74.4375
  74.5000
  74.5625
  74.6250
  74.6875
  74.7500
  74.8125
  74.8750
  74.9375
  75.0000
  75.0625
  75.1250
  75.1875
  75.2500
  75.3125
  75.3750
  75.4375
  75.5000
  75.5625
  75.6250
  75.6875
  75.7500
  75.8125
  75.8750
  75.9375
  76.0000
  76.0625
  76.1250
  76.1875
  76.2500
  76.3125
  76.3750
  76.4375
  76.5000
  76.5625
  76.6250
  76.6875
  76.7500
  76.8125
  76.8750
  76.9375
  77.0000
  77.0625
  77.1250
  77.1875
  77.2500
  77.3125
  77.3750
  77.4375
  77.5000
  77.5625
  77.6250
  77.6875
  77.7500
  77.8125
  77.8750
  77.9375
  78.0000
  78.0625
  78.1250
  78.1875
  78.2500
  78.3125
  78.3750
  78.4375
  78.5000
  78.5625
  78.6250
  78.6875
  78.7500
  78.8125
  78.8750
  78.9375
  79.0000
  79.0625
  79.1250
  79.1875
  79.2500
  79.3125
  79.3750
  79.4375
  79.5000
  79.5625
  79.6250
  79.6875
  79.7500
  79.8125
  79.8750
  79.9375
  80.0000
  80.0625
  80.1250
  80.1875
  80.2500
  80.3125
  80.3750
  80.4375
  80.5000
  80.5625
  80.6250
  80.6875
  80.7500
  80.8125
  80.8750
  80.9375
  81.0000
  81.0625
  81.1250
  81.1875
  81.2500
  81.3125
  81.3750
  81.4375
  81.5000
  81.5625
  81.6250
  81.6875
  81.7500
  81.8125
  81.8750
  81.9375
  82.0000
  82.0625
  82.1250
  82.1875
  82.2500
  82.3125
  82.3750
  82.4375
  82.5000
  82.5625
  82.6250
  82.6875
  82.7500
  82.8125
  82.8750
  82.9375
  83.0000
  83.0625
  83.1250
  83.1875
  83.2500
  83.3125
  83.3750
  83.4375
  83.5000
  83.5625
  83.6250
  83.6875
  83.7500
  83.8125
  83.8750
  83.9375
  84.0000
  84.0625
  84.1250
  84.1875
  84.2500
  84.3125
  84.3750
  84.4375
  84.5000
  84.5625
  84.6250
  84.6875
  84.7500
  84.8125
  84.8750
  84.9375
  85.0000
  85.0625
  85.1250
  85.1875
  85.2500
  85.3125
  85.3750
  85.4375
  85.5000
  85.5625
  85.6250
  85.6875
  85.7500
  85.8125
  85.8750
  85.9375
  86.0000
  86.0625
  86.1250
  86.1875
  86.2500
  86.3125
  86.3750
  86.4375
  86.5000
  86.5625
  86.6250
  86.6875
  86.7500
  86.8125
  86.8750
  86.9375
  87.0000
  87.0625
  87.1250
  87.1875
  87.2500
  87.3125
  87.3750
  87.4375
  87.5000
  87.5625
  87.6250
  87.6875
  87.7500
  87.8125
  87.8750
  87.9375
  88.0000
  88.0625
  88.1250
  88.1875
  88.2500
  88.3125
  88.3750
  88.4375
  88.5000
  88.5625
  88.6250
  88.6875
  88.7500
  88.8125
  88.8750
  88.9375
  89.0000
  89.0625
  89.1250
  89.1875
  89.2500
  89.3125
  89.3750
  89.4375
  89.5000
  89.5625
  89.6250
  89.6875
  89.7500
  89.8125
  89.8750
  89.9375
  90.0000
  90.0625
  90.1250
  90.1875
  90.2500
  90.3125
  90.3750
  90.4375
  90.5000
  90.5625
  90.6250
  90.6875
  90.7500
  90.8125
  90.8750
  90.9375
  91.0000
  91.0625
  91.1250
  91.1875
  91.2500
  91.3125
  91.3750
  91.4375
  91.5000
  91.5625
  91.6250
  91.6875
  91.7500
  91.8125
  91.8750
  91.9375
  92.0000
  92.0625
  92.1250
  92.1875
  92.2500
  92.3125
  92.3750
  92.4375
  92.5000
  92.5625
  92.6250
  92.6875
  92.7500
  92.8125
  92.8750
  92.9375
  93.0000
  93.0625
  93.1250
  93.1875
  93.2500
  93.3125
  93.3750
  93.4375
  93.5000
  93.5625
  93.6250
  93.6875
  93.7500
  93.8125
  93.8750
  93.9375
  94.0000
  94.0625
  94.1250
  94.1875
  94.2500
  94.3125
  94.3750
  94.4375
  94.5000
  94.5625
  94.6250
  94.6875
  94.7500
  94.8125
  94.8750
  94.9375
  95.0000
  95.0625
  95.1250
  95.1875
  95.2500
  95.3125
  95.3750
  95.4375
  95.5000
  95.5625
  95.6250
  95.6875
  95.7500
  95.8125
  95.8750
  95.9375
  96.0000
  96.0625
  96.1250
  96.1875
  96.2500
  96.3125
  96.3750
  96.4375
  96.5000
  96.5625
  96.6250
  96.6875
  96.7500
  96.8125
  96.8750
  96.9375
  97.0000
  97.0625
  97.1250
  97.1875
  97.2500
  97.3125
  97.3750
  97.4375
  97.5000
  97.5625
  97.6250
  97.6875
  97.7500
  97.8125
  97.8750
  97.9375
  98.0000
  98.0625
  98.1250
  98.1875
  98.2500
  98.3125
  98.3750
  98.4375
  98.5000
  98.5625
  98.6250
  98.6875
  98.7500
  98.8125
  98.8750
  98.9375
  99.0000
  99.0625
  99.1250
  99.1875
  99.2500
  99.3125
  99.3750
  99.4375
  99.5000
  99.5625
  99.6250
  99.6875
  99.7500
  99.8125
  99.8750
  99.9375
 100.0000
 100.0625
 100.1250
 100.1875
 100.2500
 100.3125
 100.3750
 100.4375
 100.5000
 100.5625
 100.6250
 100.6875
 100.7500
 100.8125
 100.8750
 100.9375
 101.0000
 101.0625
 101.1250
 101.1875
 101.2500
 101.3125
 101.3750
 101.4375
 101.5000
 101.5625
 101.6250
 101.6875
 101.7500
 101.8125
 101.8750
 101.9375
 102.0000
 102.0625
 102.1250
 102.1875
 102.2500
 102.3125
 102.3750
 102.4375
 102.5000
 102.5625
 102.6250
 102.6875
 102.7500
 102.8125
 102.8750
 102.9375
 103.0000
 103.0625
 103.1250
 103.1875
 103.2500
 103.3125
 103.3750
 103.4375
 103.5000
 103.5625
 103.6250
 103.6875
 103.7500
 103.8125
 103.8750
 103.9375
 104.0000
 104.0625
 104.1250
 104.1875
 104.2500
 104.3125
 104.3750
 104.4375
 104.5000
 104.5625
 104.6250
 104.6875
 104.7500
 104.8125
 104.8750
 104.9375
 105.0000
 105.0625
 105.1250
 105.1875
 105.2500
 105.3125
 105.3750
 105.4375
 105.5000
 105.5625
 105.6250
 105.6875
 105.7500
 105.8125
 105.8750
 105.9375
 106.0000
 106.0625
 106.1250
 106.1875
 106.2500
 106.3125
 106.3750
 106.4375
 106.5000
 106.5625
 106.6250
 106.6875
 106.7500
 106.8125
 106.8750
 106.9375
 107.0000
 107.0625
 107.1250
 107.1875
 107.2500
 107.3125
 107.3750
 107.4375
 107.5000
 107.5625
 107.6250
 107.6875
 107.7500
 107.8125
 107.8750
 107.9375
 108.0000
 108.0625
 108.1250
 108.1875
 108.2500
 108.3125
 108.3750
 108.4375
 108.5000
 108.5625
 108.6250
 108.6875
 108.7500
 108.8125
 108.8750
 108.9375
 109.0000
 109.0625
 109.1250
 109.1875
 109.2500
 109.3125
 109.3750
 109.4375
 109.5000
 109.5625
 109.6250
 109.6875
 109.7500
 109.8125
 109.8750
 109.9375
 110.0000
 110.0625
 110.1250
 110.1875
 110.2500
 110.3125
 110.3750
 110.4375
 110.5000
 110.5625
 110.6250
 110.6875
 110.7500
 110.8125
 110.8750
 110.9375
 111.0000
 111.0625
 111.1250
 111.1875
 111.2500
 111.3125
 111.3750
 111.4375
 111.5000
 111.5625
 111.6250
 111.6875
 111.7500
 111.8125
 111.8750
 111.9375
 112.0000
 112.0625
 112.1250
 112.1875
 112.2500
 112.3125
 112.3750
 112.4375
 112.5000
 112.5625
 112.6250
 112.6875
 112.7500
 112.8125
 112.8750
 112.9375
 113.0000
 113.0625
 113.1250
 113.1875
 113.2500
 113.3125
 113.3750
 113.4375
 113.5000
 113.5625
 113.6250
 113.6875
 113.7500
 113.8125
 113.8750
 113.9375
 114.0000
 114.0625
 114.1250
 114.1875
 114.2500
 114.3125
 114.3750
 114.4375
 114.5000
 114.5625
 114.6250
 114.6875
 114.7500
 114.8125
 114.8750
 114.9375
 115.0000
 115.0625
 115.1250
 115.1875
 115.2500
 115.3125
 115.3750
 115.4375
 115.5000
 115.5625
 115.6250
 115.6875
 115.7500
 115.8125
 115.8750
 115.9375
 116.0000
 116.0625
 116.1250
 116.1875
 116.2500
 116.3125
 116.3750
 116.4375
 116.5000
 116.5625
 116.6250
 116.6875
 116.7500
 116.8125
 116.8750
 116.9375
 117.0000
 117.0625
 117.1250
 117.1875
 117.2500
 117.3125
 117.3750
 117.4375
 117.5000
 117.5625
 117.6250
 117.6875
 117.7500
 117.8125
 117.8750
 117.9375
 118.0000
 118.0625
 118.1250
 118.1875
 118.2500
 118.3125
 118.3750
 118.4375
 118.5000
 118.5625
 118.6250
 118.6875
 118.7500
 118.8125
 118.8750
 118.9375
 119.0000
 119.0625
 119.1250
 119.1875
 119.2500
 119.3125
 119.3750
 119.4375
 119.5000
 119.5625
 119.6250
 119.6875
 119.7500
 119.8125
 119.8750
 119.9375
 120.0000
 120.0625
 120.1250
 120.1875
 120.2500
 120.3125
 120.3750
 120.4375
 120.5000
 120.5625
 120.6250
 120.6875
 120.7500
 120.8125
 120.8750
 120.9375
 121.0000
 121.0625
 121.1250
 121.1875
 121.2500
 121.3125
 121.3750
 121.4375
 121.5000
 121.5625
 121.6250
 121.6875
 121.7500
 121.8125
 121.8750
 121.9375
 122.0000
 122.0625
 122.1250
 122.1875
 122.2500
 122.3125
 122.3750
 122.4375
 122.5000
 122.5625
 122.6250
 122.6875
 122.7500
 122.8125
 122.8750
 122.9375
 123.0000
 123.0625
 123.1250
 123.1875
 123.2500
 123.3125
 123.3750
 123.4375
 123.5000
 123.5625
 123.6250
 123.6875
 123.7500
 123.8125
 123.8750
 123.9375
 124.0000
 124.0625
 124.1250
 124.1875
 124.2500
 124.3125
 124.3750
 124.4375
 124.5000
 124.5625
 124.6250
 124.6875
 124.7500
 124.8125
 124.8750
 124.9375
 125.0000
 125.0625
 125.1250
 125.1875
 125.2500
 125.3125
 125.3750
 125.4375
 125.5000
 125.5625
 125.6250
 125.6875
 125.7500
 125.8125
 125.8750
 125.9375
 126.0000
 126.0625
 126.1250
 126.1875
 126.2500
 126.3125
 126.3750
 126.4375
 126.5000
 126.5625
 126.6250
 126.6875
 126.7500
 126.8125
 126.8750
 126.9375
 127.0000
 127.0625
 127.1250
 127.1875
 127.2500
 127.3125
 127.3750
 127.4375
 127.5000
 127.5625
 127.6250
 127.6875
 127.7500
 127.8125
 127.8750
 127.9375
 128.0000
 128.0625
 128.1250
 128.1875
 128.2500
 128.3125
 128.3750
 128.4375
 128.5000
 128.5625
 128.6250
 128.6875
 128.7500
 128.8125
 128.8750
 128.9375
 129.0000
 129.0625
 129.1250
 129.1875
 129.2500
 129.3125
 129.3750
 129.4375
 129.5000
 129.5625
 129.6250
 129.6875
 129.7500
 129.8125
 129.8750
 129.9375
 130.0000
 130.0625
 130.1250
 130.1875
 130.2500
 130.3125
 130.3750
 130.4375
 130.5000
 130.5625
 130.6250
 130.6875
 130.7500
 130.8125
 130.8750
 130.9375
 131.0000
 131.0625
 131.1250
 131.1875
 131.2500
 131.3125
 131.3750
 131.4375
 131.5000
 131.5625
 131.6250
 131.6875
 131.7500
 131.8125
 131.8750
 131.9375
 132.0000
 132.0625
 132.1250
 132.1875
 132.2500
 132.3125
 132.3750
 132.4375
 132.5000
 132.5625
 132.6250
 132.6875
 132.7500
 132.8125
 132.8750
 132.9375
 133.0000
 133.0625
 133.1250
 133.1875
 133.2500
 133.3125
 133.3750
 133.4375
 133.5000
 133.5625
 133.6250
 133.6875
 133.7500
 133.8125
 133.8750
 133.9375
 134.0000
 134.0625
 134.1250
 134.1875
 134.2500
 134.3125
 134.3750
 134.4375
 134.5000
 134.5625
 134.6250
 134.6875
 134.7500
 134.8125
 134.8750
 134.9375
 135.0000
 135.0625
 135.1250
 135.1875
 135.2500
 135.3125
 135.3750
 135.4375
 135.5000
 135.5625
 135.6250
 135.6875
 135.7500
 135.8125
 135.8750
 135.9375
 136.0000
 136.0625
 136.1250
 136.1875
 136.2500
 136.3125
 136.3750
 136.4375
 136.5000
 136.5625
 136.6250
 136.6875
 136.7500
 136.8125
 136.8750
 136.9375
 137.0000
 137.0625
 137.1250
 137.1875
 137.2500
 137.3125
 137.3750
 137.4375
 137.5000
 137.5625
 137.6250
 137.6875
 137.7500
 137.8125
 137.8750
 137.9375
 138.0000
 138.0625
 138.1250
 138.1875
 138.2500
 138.3125
 138.3750
 138.4375
 138.5000
 138.5625
 138.6250
 138.6875
 138.7500
 138.8125
 138.8750
 138.9375
 139.0000
 139.0625
 139.1250
 139.1875
 139.2500
 139.3125
 139.3750
 139.4375
 139.5000
 139.5625
 139.6250
 139.6875
 139.7500
 139.8125
 139.8750
 139.9375
 140.0000
 140.0625
 140.1250
 140.1875
 140.2500
 140.3125
 140.3750
 140.4375
 140.5000
 140.5625
 140.6250
 140.6875
 140.7500
 140.8125
 140.8750
 140.9375
 141.0000
 141.0625
 141.1250
 141.1875
 141.2500
 141.3125
 141.3750
 141.4375
 141.5000
 141.5625
 141.6250
 141.6875
 141.7500
 141.8125
 141.8750
 141.9375
 142.0000
 142.0625
 142.1250
 142.1875
 142.2500
 142.3125
 142.3750
 142.4375
 142.5000
 142.5625
 142.6250
 142.6875
 142.7500
 142.8125
 142.8750
 142.9375
 143.0000
 143.0625
 143.1250
 143.1875
 143.2500
 143.3125
 143.3750
 143.4375
 143.5000
 143.5625
 143.6250
 143.6875
 143.7500
 143.8125
 143.8750
 143.9375
 144.0000
 144.0625
 144.1250
 144.1875
 144.2500
 144.3125
 144.3750
 144.4375
 144.5000
 144.5625
 144.6250
 144.6875
 144.7500
 144.8125
 144.8750
 144.9375
 145.0000
 145.0625
 145.1250
 145.1875
 145.2500
 145.3125
 145.3750
 145.4375
 145.5000
 145.5625
 145.6250
 145.6875
 145.7500
 145.8125
 145.8750
 145.9375
 146.0000
 146.0625
 146.1250
 146.1875
 146.2500
 146.3125
 146.3750
 146.4375
 146.5000
 146.5625
 146.6250
 146.6875
 146.7500
 146.8125
 146.8750
 146.9375
 147.0000
 147.0625
 147.1250
 147.1875
 147.2500
 147.3125
 147.3750
 147.4375
 147.5000
 147.5625
 147.6250
 147.6875
 147.7500
 147.8125
 147.8750
 147.9375
 148.0000
 148.0625
 148.1250
 148.1875
 148.2500
 148.3125
 148.3750
 148.4375
 148.5000
 148.5625
 148.6250
 148.6875
 148.7500
 148.8125
 148.8750
 148.9375
 149.0000
 149.0625
 149.1250
 149.1875
 149.2500
 149.3125
 149.3750
 149.4375
 149.5000
 149.5625
 149.6250
 149.6875
 149.7500
 149.8125
 149.8750
 149.9375
 150.0000
 150.0625
 150.1250
 150.1875
 150.2500
 150.3125
 150.3750
 150.4375
 150.5000
 150.5625
 150.6250
 150.6875
 150.7500
 150.8125
 150.8750
 150.9375
 151.0000
 151.0625
 151.1250
 151.1875
 151.2500
 151.3125
 151.3750
 151.4375
 151.5000
 151.5625
 151.6250
 151.6875
 151.7500
 151.8125
 151.8750
 151.9375
 152.0000
 152.0625
 152.1250
 152.1875
 152.2500
 152.3125
 152.3750
 152.4375
 152.5000
 152.5625
 152.6250
 152.6875
 152.7500
 152.8125
 152.8750
 152.9375
 153.0000
 153.0625
 153.1250
 153.1875
 153.2500
 153.3125
 153.3750
 153.4375
 153.5000
 153.5625
 153.6250
 153.6875
 153.7500
 153.8125
 153.8750
 153.9375
 154.0000
 154.0625
 154.1250
 154.1875
 154.2500
 154.3125
 154.3750
 154.4375
 154.5000
 154.5625
 154.6250
 154.6875
 154.7500
 154.8125
 154.8750
 154.9375
 155.0000
 155.0625
 155.1250
 155.1875
 155.2500
 155.3125
 155.3750
 155.4375
 155.5000
 155.5625
 155.6250
 155.6875
 155.7500
 155.8125
 155.8750
 155.9375
 156.0000
 156.0625
 156.1250
 156.1875
 156.2500
 156.3125
 156.3750
 156.4375
 156.5000
 156.5625
 156.6250
 156.6875
 156.7500
 156.8125
 156.8750
 156.9375
 157.0000
 157.0625
 157.1250
 157.1875
 157.2500
 157.3125
 157.3750
 157.4375
 157.5000
 157.5625
 157.6250
 157.6875
 157.7500
 157.8125
 157.8750
 157.9375
 158.0000
 158.0625
 158.1250
 158.1875
 158.2500
 158.3125
 158.3750
 158.4375
 158.5000
 158.5625
 158.6250
 158.6875
 158.7500
 158.8125
 158.8750
 158.9375
 159.0000
 159.0625
 159.1250
 159.1875
 159.2500
 159.3125
 159.3750
 159.4375
 159.5000
 159.5625
 159.6250
 159.6875
 159.7500
 159.8125
 159.8750
 159.9375
 160.0000
 160.0625
 160.1250
 160.1875
 160.2500
 160.3125
 160.3750
 160.4375
 160.5000
 160.5625
 160.6250
 160.6875
 160.7500
 160.8125
 160.8750
 160.9375
 161.0000
 161.0625
 161.1250
 161.1875
 161.2500
 161.3125
 161.3750
 161.4375
 161.5000
 161.5625
 161.6250
 161.6875
 161.7500
 161.8125
 161.8750
 161.9375
 162.0000
 162.0625
 162.1250
 162.1875
 162.2500
 162.3125
 162.3750
 162.4375
 162.5000
 162.5625
 162.6250
 162.6875
 162.7500
 162.8125
 162.8750
 162.9375
 163.0000
 163.0625
 163.1250
 163.1875
 163.2500
 163.3125
 163.3750
 163.4375
 163.5000
 163.5625
 163.6250
 163.6875
 163.7500
 163.8125
 163.8750
 163.9375
 164.0000
 164.0625
 164.1250
 164.1875
 164.2500
 164.3125
 164.3750
 164.4375
 164.5000
 164.5625
 164.6250
 164.6875
 164.7500
 164.8125
 164.8750
 164.9375
 165.0000
 165.0625
 165.1250
 165.1875
 165.2500
 165.3125
 165.3750
 165.4375
 165.5000
 165.5625
 165.6250
 165.6875
 165.7500
 165.8125
 165.8750
 165.9375
 166.0000
 166.0625
 166.1250
 166.1875
 166.2500
 166.3125
 166.3750
 166.4375
 166.5000
 166.5625
 166.6250
 166.6875
 166.7500
 166.8125
 166.8750
 166.9375
 167.0000
 167.0625
 167.1250
 167.1875
 167.2500
 167.3125
 167.3750
 167.4375
 167.5000
 167.5625
 167.6250
 167.6875
 167.7500
 167.8125
 167.8750
 167.9375
 168.0000
 168.0625
 168.1250
 168.1875
 168.2500
 168.3125
 168.3750
 168.4375
 168.5000
 168.5625
 168.6250
 168.6875
 168.7500
 168.8125
 168.8750
 168.9375
 169.0000
 169.0625
 169.1250
 169.1875
 169.2500
 169.3125
 169.3750
 169.4375
 169.5000
 169.5625
 169.6250
 169.6875
 169.7500
 169.8125
 169.8750
 169.9375
 170.0000
 170.0625
 170.1250
 170.1875
 170.2500
 170.3125
 170.3750
 170.4375
 170.5000
 170.5625
 170.6250
 170.6875
 170.7500
 170.8125
 170.8750
 170.9375
 171.0000
 171.0625
 171.1250
 171.1875
 171.2500
 171.3125
 171.3750
 171.4375
 171.5000
 171.5625
 171.6250
 171.6875
 171.7500
 171.8125
 171.8750
 171.9375
 172.0000
 172.0625
 172.1250
 172.1875
 172.2500
 172.3125
 172.3750
 172.4375
 172.5000
 172.5625
 172.6250
 172.6875
 172.7500
 172.8125
 172.8750
 172.9375
 173.0000
 173.0625
 173.1250
 173.1875
 173.2500
 173.3125
 173.3750
 173.4375
 173.5000
 173.5625
 173.6250
 173.6875
 173.7500
 173.8125
 173.8750
 173.9375
 174.0000
 174.0625
 174.1250
 174.1875
 174.2500
 174.3125
 174.3750
 174.4375
 174.5000
 174.5625
 174.6250
 174.6875
 174.7500
 174.8125
 174.8750
 174.9375
 175.0000
 175.0625
 175.1250
 175.1875
 175.2500
 175.3125
 175.3750
 175.4375
 175.5000
 175.5625
 175.6250
 175.6875
 175.7500
 175.8125
 175.8750
 175.9375
 176.0000
 176.0625
 176.1250
 176.1875
 176.2500
 176.3125
 176.3750
 176.4375
 176.5000
 176.5625
 176.6250
 176.6875
 176.7500
 176.8125
 176.8750
 176.9375
 177.0000
 177.0625
 177.1250
 177.1875
 177.2500
 177.3125
 177.3750
 177.4375
 177.5000
 177.5625
 177.6250
 177.6875
 177.7500
 177.8125
 177.8750
 177.9375
 178.0000
 178.0625
 178.1250
 178.1875
 178.2500
 178.3125
 178.3750
 178.4375
 178.5000
 178.5625
 178.6250
 178.6875
 178.7500
 178.8125
 178.8750
 178.9375
 179.0000
 179.0625
 179.1250
 179.1875
 179.2500
 179.3125
 179.3750
 179.4375
 179.5000
 179.5625
 179.6250
 179.6875
 179.7500
 179.8125
 179.8750
 179.9375
 180.0000
 180.0625
 180.1250
 180.1875
 180.2500
 180.3125
 180.3750
 180.4375
 180.5000
 180.5625
 180.6250
 180.6875
 180.7500
 180.8125
 180.8750
 180.9375
 181.0000
 181.0625
 181.1250
 181.1875
 181.2500
 181.3125
 181.3750
 181.4375
 181.5000
 181.5625
 181.6250
 181.6875
 181.7500
 181.8125
 181.8750
 181.9375
 182.0000
 182.0625
 182.1250
 182.1875
 182.2500
 182.3125
 182.3750
 182.4375
 182.5000
 182.5625
 182.6250
 182.6875
 182.7500
 182.8125
 182.8750
 182.9375
 183.0000
 183.0625
 183.1250
 183.1875
 183.2500
 183.3125
 183.3750
 183.4375
 183.5000
 183.5625
 183.6250
 183.6875
 183.7500
 183.8125
 183.8750
 183.9375
 184.0000
 184.0625
 184.1250
 184.1875
 184.2500
 184.3125
 184.3750
 184.4375
 184.5000
 184.5625
 184.6250
 184.6875
 184.7500
 184.8125
 184.8750
 184.9375
 185.0000
 185.0625
 185.1250
 185.1875
 185.2500
 185.3125
 185.3750
 185.4375
 185.5000
 185.5625
 185.6250
 185.6875
 185.7500
 185.8125
 185.8750
 185.9375
 186.0000
 186.0625
 186.1250
 186.1875
 186.2500
 186.3125
 186.3750
 186.4375
 186.5000
 186.5625
 186.6250
 186.6875
 186.7500
 186.8125
 186.8750
 186.9375
 187.0000
 187.0625
 187.1250
 187.1875
 187.2500
 187.3125
 187.3750
 187.4375
 187.5000
 187.5625
 187.6250
 187.6875
 187.7500
 187.8125
 187.8750
 187.9375
 188.0000
 188.0625
 188.1250
 188.1875
 188.2500
 188.3125
 188.3750
 188.4375
 188.5000
 188.5625
 188.6250
 188.6875
 188.7500
 188.8125
 188.8750
 188.9375
 189.0000
 189.0625
 189.1250
 189.1875
 189.2500
 189.3125
 189.3750
 189.4375
 189.5000
 189.5625
 189.6250
 189.6875
 189.7500
 189.8125
 189.8750
 189.9375
 190.0000
 190.0625
 190.1250
 190.1875
 190.2500
 190.3125
 190.3750
 190.4375
 190.5000
 190.5625
 190.6250
 190.6875
 190.7500
 190.8125
 190.8750
 190.9375
 191.0000
 191.0625
 191.1250
 191.1875
 191.2500
 191.3125
 191.3750
 191.4375
 191.5000
 191.5625
 191.6250
 191.6875
 191.7500
 191.8125
 191.8750
 191.9375
 192.0000
 192.0625
 192.1250
 192.1875
 192.2500
 192.3125
 192.3750
 192.4375
 192.5000
 192.5625
 192.6250
 192.6875
 192.7500
 192.8125
 192.8750
 192.9375
 193.0000
 193.0625
 193.1250
 193.1875
 193.2500
 193.3125
 193.3750
 193.4375
 193.5000
 193.5625
 193.6250
 193.6875
 193.7500
 193.8125
 193.8750
 193.9375
 194.0000
 194.0625
 194.1250
 194.1875
 194.2500
 194.3125
 194.3750
 194.4375
 194.5000
 194.5625
 194.6250
 194.6875
 194.7500
 194.8125
 194.8750
 194.9375
 195.0000
 195.0625
 195.1250
 195.1875
 195.2500
 195.3125
 195.3750
 195.4375
 195.5000
 195.5625
 195.6250
 195.6875
 195.7500
 195.8125
 195.8750
 195.9375
 196.0000
 196.0625
 196.1250
 196.1875
 196.2500
 196.3125
 196.3750
 196.4375
 196.5000
 196.5625
 196.6250
 196.6875
 196.7500
 196.8125
 196.8750
 196.9375
 197.0000
 197.0625
 197.1250
 197.1875
 197.2500
 197.3125
 197.3750
 197.4375
 197.5000
 197.5625
 197.6250
 197.6875
 197.7500
 197.8125
 197.8750
 197.9375
 198.0000
 198.0625
 198.1250
 198.1875
 198.2500
 198.3125
 198.3750
 198.4375
 198.5000
 198.5625
 198.6250
 198.6875
 198.7500
 198.8125
 198.8750
 198.9375
 199.0000
 199.0625
 199.1250
 199.1875
 199.2500
 199.3125
 199.3750
 199.4375
 199.5000
 199.5625
 199.6250
 199.6875
 199.7500
 199.8125
 199.8750
 199.9375
 200.0000
 200.0625
 200.1250
 200.1875
 200.2500
 200.3125
 200.3750
 200.4375
 200.5000
 200.5625
 200.6250
 200.6875
 200.7500
 200.8125
 200.8750
 200.9375
 201.0000
 201.0625
 201.1250
 201.1875
 201.2500
 201.3125
 201.3750
 201.4375
 201.5000
 201.5625
 201.6250
 201.6875
 201.7500
 201.8125
 201.8750
 201.9375
 202.0000
 202.0625
 202.1250
 202.1875
 202.2500
 202.3125
 202.3750
 202.4375
 202.5000
 202.5625
 202.6250
 202.6875
 202.7500
 202.8125
 202.8750
 202.9375
 203.0000
 203.0625
 203.1250
 203.1875
 203.2500
 203.3125
 203.3750
 203.4375
 203.5000
 203.5625
 203.6250
 203.6875
 203.7500
 203.8125
 203.8750
 203.9375
 204.0000
 204.0625
 204.1250
 204.1875
 204.2500
 204.3125
 204.3750
 204.4375
 204.5000
 204.5625
 204.6250
 204.6875
 204.7500
 204.8125
 204.8750
 204.9375
 205.0000
 205.0625
 205.1250
 205.1875
 205.2500
 205.3125
 205.3750
 205.4375
 205.5000
 205.5625
 205.6250
 205.6875
 205.7500
 205.8125
 205.8750
 205.9375
 206.0000
 206.0625
 206.1250
 206.1875
 206.2500
 206.3125
 206.3750
 206.4375
 206.5000
 206.5625
 206.6250
 206.6875
 206.7500
 206.8125
 206.8750
 206.9375
 207.0000
 207.0625
 207.1250
 207.1875
 207.2500
 207.3125
 207.3750
 207.4375
 207.5000
 207.5625
 207.6250
 207.6875
 207.7500
 207.8125
 207.8750
 207.9375
 208.0000
 208.0625
 208.1250
 208.1875
 208.2500
 208.3125
 208.3750
 208.4375
 208.5000
 208.5625
 208.6250
 208.6875
 208.7500
 208.8125
 208.8750
 208.9375
 209.0000
 209.0625
 209.1250
 209.1875
 209.2500
 209.3125
 209.3750
 209.4375
 209.5000
 209.5625
 209.6250
 209.6875
 209.7500
 209.8125
 209.8750
 209.9375
 210.0000
 210.0625
 210.1250
 210.1875
 210.2500
 210.3125
 210.3750
 210.4375
 210.5000
 210.5625
 210.6250
 210.6875
 210.7500
 210.8125
 210.8750
 210.9375
 211.0000
 211.0625
 211.1250
 211.1875
 211.2500
 211.3125
 211.3750
 211.4375
 211.5000
 211.5625
 211.6250
 211.6875
 211.7500
 211.8125
 211.8750
 211.9375
 212.0000
 212.0625
 212.1250
 212.1875
 212.2500
 212.3125
 212.3750
 212.4375
 212.5000
 212.5625
 212.6250
 212.6875
 212.7500
 212.8125
 212.8750
 212.9375
 213.0000
 213.0625
 213.1250
 213.1875
 213.2500
 213.3125
 213.3750
 213.4375
 213.5000
 213.5625
 213.6250
 213.6875
 213.7500
 213.8125
 213.8750
 213.9375
 214.0000
 214.0625
 214.1250
 214.1875
 214.2500
 214.3125
 214.3750
 214.4375
 214.5000
 214.5625
 214.6250
 214.6875
 214.7500
 214.8125
 214.8750
 214.9375
 215.0000
 215.0625
 215.1250
 215.1875
 215.2500
 215.3125
 215.3750
 215.4375
 215.5000
 215.5625
 215.6250
 215.6875
 215.7500
 215.8125
 215.8750
 215.9375
 216.0000
 216.0625
 216.1250
 216.1875
 216.2500
 216.3125
 216.3750
 216.4375
 216.5000
 216.5625
 216.6250
 216.6875
 216.7500
 216.8125
 216.8750
 216.9375
 217.0000
 217.0625
 217.1250
 217.1875
 217.2500
 217.3125
 217.3750
 217.4375
 217.5000
 217.5625
 217.6250
 217.6875
 217.7500
 217.8125
 217.8750
 217.9375
 218.0000
 218.0625
 218.1250
 218.1875
 218.2500
 218.3125
 218.3750
 218.4375
 218.5000
 218.5625
 218.6250
 218.6875
 218.7500
 218.8125
 218.8750
 218.9375
 219.0000
 219.0625
 219.1250
 219.1875
 219.2500
 219.3125
 219.3750
 219.4375
 219.5000
 219.5625
 219.6250
 219.6875
 219.7500
 219.8125
 219.8750
 219.9375
 220.0000
 220.0625
 220.1250
 220.1875
 220.2500
 220.3125
 220.3750
 220.4375
 220.5000
 220.5625
 220.6250
 220.6875
 220.7500
 220.8125
 220.8750
 220.9375
 221.0000
 221.0625
 221.1250
 221.1875
 221.2500
 221.3125
 221.3750
 221.4375
 221.5000
 221.5625
 221.6250
 221.6875
 221.7500
 221.8125
 221.8750
 221.9375
 222.0000
 222.0625
 222.1250
 222.1875
 222.2500
 222.3125
 222.3750
 222.4375
 222.5000
 222.5625
 222.6250
 222.6875
 222.7500
 222.8125
 222.8750
 222.9375
 223.0000
 223.0625
 223.1250
 223.1875
 223.2500
 223.3125
 223.3750
 223.4375
 223.5000
 223.5625
 223.6250
 223.6875
 223.7500
 223.8125
 223.8750
 223.9375
 224.0000
 224.0625
 224.1250
 224.1875
 224.2500
 224.3125
 224.3750
 224.4375
 224.5000
 224.5625
 224.6250
 224.6875
 224.7500
 224.8125
 224.8750
 224.9375
 225.0000
 225.0625
 225.1250
 225.1875
 225.2500
 225.3125
 225.3750
 225.4375
 225.5000
 225.5625
 225.6250
 225.6875
 225.7500
 225.8125
 225.8750
 225.9375
 226.0000
 226.0625
 226.1250
 226.1875
 226.2500
 226.3125
 226.3750
 226.4375
 226.5000
 226.5625
 226.6250
 226.6875
 226.7500
 226.8125
 226.8750
 226.9375
 227.0000
 227.0625
 227.1250
 227.1875
 227.2500
 227.3125
 227.3750
 227.4375
 227.5000
 227.5625
 227.6250
 227.6875
 227.7500
 227.8125
 227.8750
 227.9375
 228.0000
 228.0625
 228.1250
 228.1875
 228.2500
 228.3125
 228.3750
 228.4375
 228.5000
 228.5625
 228.6250
 228.6875
 228.7500
 228.8125
 228.8750
 228.9375
 229.0000
 229.0625
 229.1250
 229.1875
 229.2500
 229.3125
 229.3750
 229.4375
 229.5000
 229.5625
 229.6250
 229.6875
 229.7500
 229.8125
 229.8750
 229.9375
 230.0000
 230.0625
 230.1250
 230.1875
 230.2500
 230.3125
 230.3750
 230.4375
 230.5000
 230.5625
 230.6250
 230.6875
 230.7500
 230.8125
 230.8750
 230.9375
 231.0000
 231.0625
 231.1250
 231.1875
 231.2500
 231.3125
 231.3750
 231.4375
 231.5000
 231.5625
 231.6250
 231.6875
 231.7500
 231.8125
 231.8750
 231.9375
 232.0000
 232.0625
 232.1250
 232.1875
 232.2500
 232.3125
 232.3750
 232.4375
 232.5000
 232.5625
 232.6250
 232.6875
 232.7500
 232.8125
 232.8750
 232.9375
 233.0000
 233.0625
 233.1250
 233.1875
 233.2500
 233.3125
 233.3750
 233.4375
 233.5000
 233.5625
 233.6250
 233.6875
 233.7500
 233.8125
 233.8750
 233.9375
 234.0000
 234.0625
 234.1250
 234.1875
 234.2500
 234.3125
 234.3750
 234.4375
 234.5000
 234.5625
 234.6250
 234.6875
 234.7500
 234.8125
 234.8750
 234.9375
 235.0000
 235.0625
 235.1250
 235.1875
 235.2500
 235.3125
 235.3750
 235.4375
 235.5000
 235.5625
 235.6250
 235.6875
 235.7500
 235.8125
 235.8750
 235.9375
 236.0000
 236.0625
 236.1250
 236.1875
 236.2500
 236.3125
 236.3750
 236.4375
 236.5000
 236.5625
 236.6250
 236.6875
 236.7500
 236.8125
 236.8750
 236.9375
 237.0000
 237.0625
 237.1250
 237.1875
 237.2500
 237.3125
 237.3750
 237.4375
 237.5000
 237.5625
 237.6250
 237.6875
 237.7500
 237.8125
 237.8750
 237.9375
 238.0000
 238.0625
 238.1250
 238.1875
 238.2500
 238.3125
 238.3750
 238.4375
 238.5000
 238.5625
 238.6250
 238.6875
 238.7500
 238.8125
 238.8750
 238.9375
 239.0000
 239.0625
 239.1250
 239.1875
 239.2500
 239.3125
 239.3750
 239.4375
 239.5000
 239.5625
 239.6250
 239.6875
 239.7500
 239.8125
 239.8750
 239.9375
 240.0000
 240.0625
 240.1250
 240.1875
 240.2500
 240.3125
 240.3750
 240.4375
 240.5000
 240.5625
 240.6250
 240.6875
 240.7500
 240.8125
 240.8750
 240.9375
 241.0000
 241.0625
 241.1250
 241.1875
 241.2500
 241.3125
 241.3750
 241.4375
 241.5000
 241.5625
 241.6250
 241.6875
 241.7500
 241.8125
 241.8750
 241.9375
 242.0000
 242.0625
 242.1250
 242.1875
 242.2500
 242.3125
 242.3750
 242.4375
 242.5000
 242.5625
 242.6250
 242.6875
 242.7500
 242.8125
 242.8750
 242.9375
 243.0000
 243.0625
 243.1250
 243.1875
 243.2500
 243.3125
 243.3750
 243.4375
 243.5000
 243.5625
 243.6250
 243.6875
 243.7500
 243.8125
 243.8750
 243.9375
 244.0000
 244.0625
 244.1250
 244.1875
 244.2500
 244.3125
 244.3750
 244.4375
 244.5000
 244.5625
 244.6250
 244.6875
 244.7500
 244.8125
 244.8750
 244.9375
 245.0000
 245.0625
 245.1250
 245.1875
 245.2500
 245.3125
 245.3750
 245.4375
 245.5000
 245.5625
 245.6250
 245.6875
 245.7500
 245.8125
 245.8750
 245.9375
 246.0000
 246.0625
 246.1250
 246.1875
 246.2500
 246.3125
 246.3750
 246.4375
 246.5000
 246.5625
 246.6250
 246.6875
 246.7500
 246.8125
 246.8750
 246.9375
 247.0000
 247.0625
 247.1250
 247.1875
 247.2500
 247.3125
 247.3750
 247.4375
 247.5000
 247.5625
 247.6250
 247.6875
 247.7500
 247.8125
 247.8750
 247.9375
 248.0000
 248.0625
 248.1250
 248.1875
 248.2500
 248.3125
 248.3750
 248.4375
 248.5000
 248.5625
 248.6250
 248.6875
 248.7500
 248.8125
 248.8750
 248.9375
 249.0000
 249.0625
 249.1250
 249.1875
 249.2500
 249.3125
 249.3750
 249.4375
 249.5000
 249.5625
 249.6250
 249.6875
 249.7500
 249.8125
 249.8750
 249.9375
 250.0000
 250.0625
 250.1250
 250.1875
 250.2500
 250.3125
 250.3750
 250.4375
 250.5000
 250.5625
 250.6250
 250.6875
 250.7500
 250.8125
 250.8750
 250.9375
 251.0000
 251.0625
 251.1250
 251.1875
 251.2500
 251.3125
 251.3750
 251.4375
 251.5000
 251.5625
 251.6250
 251.6875
 251.7500
 251.8125
 251.8750
 251.9375
 252.0000
 252.0625
 252.1250
 252.1875
 252.2500
 252.3125
 252.3750
 252.4375
 252.5000
 252.5625
 252.6250
 252.6875
 252.7500
 252.8125
 252.8750
 252.9375
 253.0000
 253.0625
 253.1250
 253.1875
 253.2500
 253.3125
 253.3750
 253.4375
 253.5000
 253.5625
 253.6250
 253.6875
 253.7500
 253.8125
 253.8750
 253.9375
 254.0000
 254.0625
 254.1250
 254.1875
 254.2500
 254.3125
 254.3750
 254.4375
 254.5000
 254.5625
 254.6250
 254.6875
 254.7500
 254.8125
 254.8750
 254.9375
 255.0000
 255.0625
 255.1250
 255.1875
 255.2500
 255.3125
 255.3750
 255.4375
 255.5000
 255.5625
 255.6250
 255.6875
 255.7500
 255.8125
 255.8750
 255.9375
 256.0000
 256.0625
 256.1250
 256.1875
 256.2500
 256.3125
 256.3750
 256.4375
 256.5000
 256.5625
 256.6250
 256.6875
 256.7500
 256.8125
 256.8750
 256.9375
 257.0000
 257.0625
 257.1250
 257.1875
 257.2500
 257.3125
 257.3750
 257.4375
 257.5000
 257.5625
 257.6250
 257.6875
 257.7500
 257.8125
 257.8750
 257.9375
 258.0000
 258.0625
 258.1250
 258.1875
 258.2500
 258.3125
 258.3750
 258.4375
 258.5000
 258.5625
 258.6250
 258.6875
 258.7500
 258.8125
 258.8750
 258.9375
 259.0000
 259.0625
 259.1250
 259.1875
 259.2500
 259.3125
 259.3750
 259.4375
 259.5000
 259.5625
 259.6250
 259.6875
 259.7500
 259.8125
 259.8750
 259.9375
 260.0000
 260.0625
 260.1250
 260.1875
 260.2500
 260.3125
 260.3750
 260.4375
 260.5000
 260.5625
 260.6250
 260.6875
 260.7500
 260.8125
 260.8750
 260.9375
 261.0000
 261.0625
 261.1250
 261.1875
 261.2500
 261.3125
 261.3750
 261.4375
 261.5000
 261.5625
 261.6250
 261.6875
 261.7500
 261.8125
 261.8750
 261.9375
 262.0000
 262.0625
 262.1250
 262.1875
 262.2500
 262.3125
 262.3750
 262.4375
 262.5000
 262.5625
 262.6250
 262.6875
 262.7500
 262.8125
 262.8750
 262.9375
 263.0000
 263.0625
 263.1250
 263.1875
 263.2500
 263.3125
 263.3750
 263.4375
 263.5000
 263.5625
 263.6250
 263.6875
 263.7500
 263.8125
 263.8750
 263.9375
 264.0000
 264.0625
 264.1250
 264.1875
 264.2500
 264.3125
 264.3750
 264.4375
 264.5000
 264.5625
 264.6250
 264.6875
 264.7500
 264.8125
 264.8750
 264.9375
 265.0000
 265.0625
 265.1250
 265.1875
 265.2500
 265.3125
 265.3750
 265.4375
 265.5000
 265.5625
 265.6250
 265.6875
 265.7500
 265.8125
 265.8750
 265.9375
 266.0000
 266.0625
 266.1250
 266.1875
 266.2500
 266.3125
 266.3750
 266.4375
 266.5000
 266.5625
 266.6250
 266.6875
 266.7500
 266.8125
 266.8750
 266.9375
 267.0000
 267.0625
 267.1250
 267.1875
 267.2500
 267.3125
 267.3750
 267.4375
 267.5000
 267.5625
 267.6250
 267.6875
 267.7500
 267.8125
 267.8750
 267.9375
 268.0000
 268.0625
 268.1250
 268.1875
 268.2500
 268.3125
 268.3750
 268.4375
 268.5000
 268.5625
 268.6250
 268.6875
 268.7500
 268.8125
 268.8750
 268.9375
 269.0000
 269.0625
 269.1250
 269.1875
 269.2500
 269.3125
 269.3750
 269.4375
 269.5000
 269.5625
 269.6250
 269.6875
 269.7500
 269.8125
 269.8750
 269.9375
 270.0000
 270.0625
 270.1250
 270.1875
 270.2500
 270.3125
 270.3750
 270.4375
 270.5000
 270.5625
 270.6250
 270.6875
 270.7500
 270.8125
 270.8750
 270.9375
 271.0000
 271.0625
 271.1250
 271.1875
 271.2500
 271.3125
 271.3750
 271.4375
 271.5000
 271.5625
 271.6250
 271.6875
 271.7500
 271.8125
 271.8750
 271.9375
 272.0000
 272.0625
 272.1250
 272.1875
 272.2500
 272.3125
 272.3750
 272.4375
 272.5000
 272.5625
 272.6250
 272.6875
 272.7500
 272.8125
 272.8750
 272.9375
 273.0000
 273.0625
 273.1250
 273.1875
 273.2500
 273.3125
 273.3750
 273.4375
 273.5000
 273.5625
 273.6250
 273.6875
 273.7500
 273.8125
 273.8750
 273.9375
 274.0000
 274.0625
 274.1250
 274.1875
 274.2500
 274.3125
 274.3750
 274.4375
 274.5000
 274.5625
 274.6250
 274.6875
 274.7500
 274.8125
 274.8750
 274.9375
 275.0000
 275.0625
 275.1250
 275.1875
 275.2500
 275.3125
 275.3750
 275.4375
 275.5000
 275.5625
 275.6250
 275.6875
 275.7500
 275.8125
 275.8750
 275.9375
 276.0000
 276.0625
 276.1250
 276.1875
 276.2500
 276.3125
 276.3750
 276.4375
 276.5000
 276.5625
 276.6250
 276.6875
 276.7500
 276.8125
 276.8750
 276.9375
 277.0000
 277.0625
 277.1250
 277.1875
 277.2500
 277.3125
 277.3750
 277.4375
 277.5000
 277.5625
 277.6250
 277.6875
 277.7500
 277.8125
 277.8750
 277.9375
 278.0000
 278.0625
 278.1250
 278.1875
 278.2500
 278.3125
 278.3750
 278.4375
 278.5000
 278.5625
 278.6250
 278.6875
 278.7500
 278.8125
 278.8750
 278.9375
 279.0000
 279.0625
 279.1250
 279.1875
 279.2500
 279.3125
 279.3750
 279.4375
 279.5000
 279.5625
 279.6250
 279.6875
 279.7500
 279.8125
 279.8750
 279.9375
 280.0000
 280.0625
 280.1250
 280.1875
 280.2500
 280.3125
 280.3750
 280.4375
 280.5000
 280.5625
 280.6250
 280.6875
 280.7500
 280.8125
 280.8750
 280.9375
 281.0000
 281.0625
 281.1250
 281.1875
 281.2500
 281.3125
 281.3750
 281.4375
 281.5000
 281.5625
 281.6250
 281.6875
 281.7500
 281.8125
 281.8750
 281.9375
 282.0000
 282.0625
 282.1250
 282.1875
 282.2500
 282.3125
 282.3750
 282.4375
 282.5000
 282.5625
 282.6250
 282.6875
 282.7500
 282.8125
 282.8750
 282.9375
 283.0000
 283.0625
 283.1250
 283.1875
 283.2500
 283.3125
 283.3750
 283.4375
 283.5000
 283.5625
 283.6250
 283.6875
 283.7500
 283.8125
 283.8750
 283.9375
 284.0000
 284.0625
 284.1250
 284.1875
 284.2500
 284.3125
 284.3750
 284.4375
 284.5000
 284.5625
 284.6250
 284.6875
 284.7500
 284.8125
 284.8750
 284.9375
 285.0000
 285.0625
 285.1250
 285.1875
 285.2500
 285.3125
 285.3750
 285.4375
 285.5000
 285.5625
 285.6250
 285.6875
 285.7500
 285.8125
 285.8750
 285.9375
 286.0000
 286.0625
 286.1250
 286.1875
 286.2500
 286.3125
 286.3750
 286.4375
 286.5000
 286.5625
 286.6250
 286.6875
 286.7500
 286.8125
 286.8750
 286.9375
 287.0000
 287.0625
 287.1250
 287.1875
 287.2500
 287.3125
 287.3750
 287.4375
 287.5000
 287.5625
 287.6250
 287.6875
 287.7500
 287.8125
 287.8750
 287.9375
 288.0000
 288.0625
 288.1250
 288.1875
 288.2500
 288.3125
 288.3750
 288.4375
 288.5000
 288.5625
 288.6250
 288.6875
 288.7500
 288.8125
 288.8750
 288.9375
 289.0000
 289.0625
 289.1250
 289.1875
 289.2500
 289.3125
 289.3750
 289.4375
 289.5000
 289.5625
 289.6250
 289.6875
 289.7500
 289.8125
 289.8750
 289.9375
 290.0000
 290.0625
 290.1250
 290.1875
 290.2500
 290.3125
 290.3750
 290.4375
 290.5000
 290.5625
 290.6250
 290.6875
 290.7500
 290.8125
 290.8750
 290.9375
 291.0000
 291.0625
 291.1250
 291.1875
 291.2500
 291.3125
 291.3750
 291.4375
 291.5000
 291.5625
 291.6250
 291.6875
 291.7500
 291.8125
 291.8750
 291.9375
 292.0000
 292.0625
 292.1250
 292.1875
 292.2500
 292.3125
 292.3750
 292.4375
 292.5000
 292.5625
 292.6250
 292.6875
 292.7500
 292.8125
 292.8750
 292.9375
 293.0000
 293.0625
 293.1250
 293.1875
 293.2500
 293.3125
 293.3750
 293.4375
 293.5000
 293.5625
 293.6250
 293.6875
 293.7500
 293.8125
 293.8750
 293.9375
 294.0000
 294.0625
 294.1250
 294.1875
 294.2500
 294.3125
 294.3750
 294.4375
 294.5000
 294.5625
 294.6250
 294.6875
 294.7500
 294.8125
 294.8750
 294.9375
 295.0000
 295.0625
 295.1250
 295.1875
 295.2500
 295.3125
 295.3750
 295.4375
 295.5000
 295.5625
 295.6250
 295.6875
 295.7500
 295.8125
 295.8750
 295.9375
 296.0000
 296.0625
 296.1250
 296.1875
 296.2500
 296.3125
 296.3750
 296.4375
 296.5000
 296.5625
 296.6250
 296.6875
 296.7500
 296.8125
 296.8750
 296.9375
 297.0000
 297.0625
 297.1250
 297.1875
 297.2500
 297.3125
 297.3750
 297.4375
 297.5000
 297.5625
 297.6250
 297.6875
 297.7500
 297.8125
 297.8750
 297.9375
 298.0000
 298.0625
 298.1250
 298.1875
 298.2500
 298.3125
 298.3750
 298.4375
 298.5000
 298.5625
 298.6250
 298.6875
 298.7500
 298.8125
 298.8750
 298.9375
 299.0000
 299.0625
 299.1250
 299.1875
 299.2500
 299.3125
 299.3750
 299.4375
 299.5000
 299.5625
 299.6250
 299.6875
 299.7500
 299.8125
 299.8750
 299.9375
 300.0000
 300.0625
 300.1250
 300.1875
 300.2500
 300.3125
 300.3750
 300.4375
 300.5000
 300.5625
 300.6250
 300.6875
 300.7500
 300.8125
 300.8750
 300.9375
 301.0000
 301.0625
 301.1250
 301.1875
 301.2500
 301.3125
 301.3750
 301.4375
 301.5000
 301.5625
 301.6250
 301.6875
 301.7500
 301.8125
 301.8750
 301.9375
 302.0000
 302.0625
 302.1250
 302.1875
 302.2500
 302.3125
 302.3750
 302.4375
 302.5000
 302.5625
 302.6250
 302.6875
 302.7500
 302.8125
 302.8750
 302.9375
 303.0000
 303.0625
 303.1250
 303.1875
 303.2500
 303.3125
 303.3750
 303.4375
 303.5000
 303.5625
 303.6250
 303.6875
 303.7500
 303.8125
 303.8750
 303.9375
 304.0000
 304.0625
 304.1250
 304.1875
 304.2500
 304.3125
 304.3750
 304.4375
 304.5000
 304.5625
 304.6250
 304.6875
 304.7500
 304.8125
 304.8750
 304.9375
 305.0000
 305.0625
 305.1250
 305.1875
 305.2500
 305.3125
 305.3750
 305.4375
 305.5000
 305.5625
 305.6250
 305.6875
 305.7500
 305.8125
 305.8750
 305.9375
 306.0000
 306.0625
 306.1250
 306.1875
 306.2500
 306.3125
 306.3750
 306.4375
 306.5000
 306.5625
 306.6250
 306.6875
 306.7500
 306.8125
 306.8750
 306.9375
 307.0000
 307.0625
 307.1250
 307.1875
 307.2500
 307.3125
 307.3750
 307.4375
 307.5000
 307.5625
 307.6250
 307.6875
 307.7500
 307.8125
 307.8750
 307.9375
 308.0000
 308.0625
 308.1250
 308.1875
 308.2500
 308.3125
 308.3750
 308.4375
 308.5000
 308.5625
 308.6250
 308.6875
 308.7500
 308.8125
 308.8750
 308.9375
 309.0000
 309.0625
 309.1250
 309.1875
 309.2500
 309.3125
 309.3750
 309.4375
 309.5000
 309.5625
 309.6250
 309.6875
 309.7500
 309.8125
 309.8750
 309.9375
 310.0000
 310.0625
 310.1250
 310.1875
 310.2500
 310.3125
 310.3750
 310.4375
 310.5000
 310.5625
 310.6250
 310.6875
 310.7500
 310.8125
 310.8750
 310.9375
 311.0000
 311.0625
 311.1250
 311.1875
 311.2500
 311.3125
 311.3750
 311.4375
 311.5000
 311.5625
 311.6250
 311.6875
 311.7500
 311.8125
 311.8750
 311.9375
 312.0000
 312.0625
 312.1250
 312.1875
 312.2500
 312.3125
 312.3750
 312.4375
 312.5000
 312.5625
 312.6250
 312.6875
 312.7500
 312.8125
 312.8750
 312.9375
 313.0000
 313.0625
 313.1250
 313.1875
 313.2500
 313.3125
 313.3750
 313.4375
 313.5000
 313.5625
 313.6250
 313.6875
 313.7500
 313.8125
 313.8750
 313.9375
 314.0000
 314.0625
 314.1250
 314.1875
 314.2500
 314.3125
 314.3750
 314.4375
 314.5000
 314.5625
 314.6250
 314.6875
 314.7500
 314.8125
 314.8750
 314.9375
 315.0000
 315.0625
 315.1250
 315.1875
 315.2500
 315.3125
 315.3750
 315.4375
 315.5000
 315.5625
 315.6250
 315.6875
 315.7500
 315.8125
 315.8750
 315.9375
 316.0000
 316.0625
 316.1250
 316.1875
 316.2500
 316.3125
 316.3750
 316.4375
 316.5000
 316.5625
 316.6250
 316.6875
 316.7500
 316.8125
 316.8750
 316.9375
 317.0000
 317.0625
 317.1250
 317.1875
 317.2500
 317.3125
 317.3750
 317.4375
 317.5000
 317.5625
 317.6250
 317.6875
 317.7500
 317.8125
 317.8750
 317.9375
 318.0000
 318.0625
 318.1250
 318.1875
 318.2500
 318.3125
 318.3750
 318.4375
 318.5000
 318.5625
 318.6250
 318.6875
 318.7500
 318.8125
 318.8750
 318.9375
 319.0000
 319.0625
 319.1250
 319.1875
 319.2500
 319.3125
 319.3750
 319.4375
 319.5000
 319.5625
 319.6250
 319.6875
 319.7500
 319.8125
 319.8750
 319.9375
 320.0000
 320.0625
 320.1250
 320.1875
 320.2500
 320.3125
 320.3750
 320.4375
 320.5000
 320.5625
 320.6250
 320.6875
 320.7500
 320.8125
 320.8750
 320.9375
 321.0000
 321.0625
 321.1250
 321.1875
 321.2500
 321.3125
 321.3750
 321.4375
 321.5000
 321.5625
 321.6250
 321.6875
 321.7500
 321.8125
 321.8750
 321.9375
 322.0000
 322.0625
 322.1250
 322.1875
 322.2500
 322.3125
 322.3750
 322.4375
 322.5000
 322.5625
 322.6250
 322.6875
 322.7500
 322.8125
 322.8750
 322.9375
 323.0000
 323.0625
 323.1250
 323.1875
 323.2500
 323.3125
 323.3750
 323.4375
 323.5000
 323.5625
 323.6250
 323.6875
 323.7500
 323.8125
 323.8750
 323.9375
 324.0000
 324.0625
 324.1250
 324.1875
 324.2500
 324.3125
 324.3750
 324.4375
 324.5000
 324.5625
 324.6250
 324.6875
 324.7500
 324.8125
 324.8750
 324.9375
 325.0000
 325.0625
 325.1250
 325.1875
 325.2500
 325.3125
 325.3750
 325.4375
 325.5000
 325.5625
 325.6250
 325.6875
 325.7500
 325.8125
 325.8750
 325.9375
 326.0000
 326.0625
 326.1250
 326.1875
 326.2500
 326.3125
 326.3750
 326.4375
 326.5000
 326.5625
 326.6250
 326.6875
 326.7500
 326.8125
 326.8750
 326.9375
 327.0000
 327.0625
 327.1250
 327.1875
 327.2500
 327.3125
 327.3750
 327.4375
 327.5000
 327.5625
 327.6250
 327.6875
 327.7500
 327.8125
 327.8750
 327.9375
 328.0000
 328.0625
 328.1250
 328.1875
 328.2500
 328.3125
 328.3750
 328.4375
 328.5000
 328.5625
 328.6250
 328.6875
 328.7500
 328.8125
 328.8750
 328.9375
 329.0000
 329.0625
 329.1250
 329.1875
 329.2500
 329.3125
 329.3750
 329.4375
 329.5000
 329.5625
 329.6250
 329.6875
 329.7500
 329.8125
 329.8750
 329.9375
 330.0000
 330.0625
 330.1250
 330.1875
 330.2500
 330.3125
 330.3750
 330.4375
 330.5000
 330.5625
 330.6250
 330.6875
 330.7500
 330.8125
 330.8750
 330.9375
 331.0000
 331.0625
 331.1250
 331.1875
 331.2500
 331.3125
 331.3750
 331.4375
 331.5000
 331.5625
 331.6250
 331.6875
 331.7500
 331.8125
 331.8750
 331.9375
 332.0000
 332.0625
 332.1250
 332.1875
 332.2500
 332.3125
 332.3750
 332.4375
 332.5000
 332.5625
 332.6250
 332.6875
 332.7500
 332.8125
 332.8750
 332.9375
 333.0000
 333.0625
 333.1250
 333.1875
 333.2500
 333.3125
 333.3750
 333.4375
 333.5000
 333.5625
 333.6250
 333.6875
 333.7500
 333.8125
 333.8750
 333.9375
 334.0000
 334.0625
 334.1250
 334.1875
 334.2500
 334.3125
 334.3750
 334.4375
 334.5000
 334.5625
 334.6250
 334.6875
 334.7500
 334.8125
 334.8750
 334.9375
 335.0000
 335.0625
 335.1250
 335.1875
 335.2500
 335.3125
 335.3750
 335.4375
 335.5000
 335.5625
 335.6250
 335.6875
 335.7500
 335.8125
 335.8750
 335.9375
 336.0000
 336.0625
 336.1250
 336.1875
 336.2500
 336.3125
 336.3750
 336.4375
 336.5000
 336.5625
 336.6250
 336.6875
 336.7500
 336.8125
 336.8750
 336.9375
 337.0000
 337.0625
 337.1250
 337.1875
 337.2500
 337.3125
 337.3750
 337.4375
 337.5000
 337.5625
 337.6250
 337.6875
 337.7500
 337.8125
 337.8750
 337.9375
 338.0000
 338.0625
 338.1250
 338.1875
 338.2500
 338.3125
 338.3750
 338.4375
 338.5000
 338.5625
 338.6250
 338.6875
 338.7500
 338.8125
 338.8750
 338.9375
 339.0000
 339.0625
 339.1250
 339.1875
 339.2500
 339.3125
 339.3750
 339.4375
 339.5000
 339.5625
 339.6250
 339.6875
 339.7500
 339.8125
 339.8750
 339.9375
 340.0000
 340.0625
 340.1250
 340.1875
 340.2500
 340.3125
 340.3750
 340.4375
 340.5000
 340.5625
 340.6250
 340.6875
 340.7500
 340.8125
 340.8750
 340.9375
 341.0000
 341.0625
 341.1250
 341.1875
 341.2500
 341.3125
 341.3750
 341.4375
 341.5000
 341.5625
 341.6250
 341.6875
 341.7500
 341.8125
 341.8750
 341.9375
 342.0000
 342.0625
 342.1250
 342.1875
 342.2500
 342.3125
 342.3750
 342.4375
 342.5000
 342.5625
 342.6250
 342.6875
 342.7500
 342.8125
 342.8750
 342.9375
 343.0000
 343.0625
 343.1250
 343.1875
 343.2500
 343.3125
 343.3750
 343.4375
 343.5000
 343.5625
 343.6250
 343.6875
 343.7500
 343.8125
 343.8750
 343.9375
 344.0000
 344.0625
 344.1250
 344.1875
 344.2500
 344.3125
 344.3750
 344.4375
 344.5000
 344.5625
 344.6250
 344.6875
 344.7500
 344.8125
 344.8750
 344.9375
 345.0000
 345.0625
 345.1250
 345.1875
 345.2500
 345.3125
 345.3750
 345.4375
 345.5000
 345.5625
 345.6250
 345.6875
 345.7500
 345.8125
 345.8750
 345.9375
 346.0000
 346.0625
 346.1250
 346.1875
 346.2500
 346.3125
 346.3750
 346.4375
 346.5000
 346.5625
 346.6250
 346.6875
 346.7500
 346.8125
 346.8750
 346.9375
 347.0000
 347.0625
 347.1250
 347.1875
 347.2500
 347.3125
 347.3750
 347.4375
 347.5000
 347.5625
 347.6250
 347.6875
 347.7500
 347.8125
 347.8750
 347.9375
 348.0000
 348.0625
 348.1250
 348.1875
 348.2500
 348.3125
 348.3750
 348.4375
 348.5000
 348.5625
 348.6250
 348.6875
 348.7500
 348.8125
 348.8750
 348.9375
 349.0000
 349.0625
 349.1250
 349.1875
 349.2500
 349.3125
 349.3750
 349.4375
 349.5000
 349.5625
 349.6250
 349.6875
 349.7500
 349.8125
 349.8750
 349.9375
 350.0000
 350.0625
 350.1250
 350.1875
 350.2500
 350.3125
 350.3750
 350.4375
 350.5000
 350.5625
 350.6250
 350.6875
 350.7500
 350.8125
 350.8750
 350.9375
 351.0000
 351.0625
 351.1250
 351.1875
 351.2500
 351.3125
 351.3750
 351.4375
 351.5000
 351.5625
 351.6250
 351.6875
 351.7500
 351.8125
 351.8750
 351.9375
 352.0000
 352.0625
 352.1250
 352.1875
 352.2500
 352.3125
 352.3750
 352.4375
 352.5000
 352.5625
 352.6250
 352.6875
 352.7500
 352.8125
 352.8750
 352.9375
 353.0000
 353.0625
 353.1250
 353.1875
 353.2500
 353.3125
 353.3750
 353.4375
 353.5000
 353.5625
 353.6250
 353.6875
 353.7500
 353.8125
 353.8750
 353.9375
 354.0000
 354.0625
 354.1250
 354.1875
 354.2500
 354.3125
 354.3750
 354.4375
 354.5000
 354.5625
 354.6250
 354.6875
 354.7500
 354.8125
 354.8750
 354.9375
 355.0000
 355.0625
 355.1250
 355.1875
 355.2500
 355.3125
 355.3750
 355.4375
 355.5000
 355.5625
 355.6250
 355.6875
 355.7500
 355.8125
 355.8750
 355.9375
 356.0000
 356.0625
 356.1250
 356.1875
 356.2500
 356.3125
 356.3750
 356.4375
 356.5000
 356.5625
 356.6250
 356.6875
 356.7500
 356.8125
 356.8750
 356.9375
 357.0000
 357.0625
 357.1250
 357.1875
 357.2500
 357.3125
 357.3750
 357.4375
 357.5000
 357.5625
 357.6250
 357.6875
 357.7500
 357.8125
 357.8750
 357.9375
 358.0000
 358.0625
 358.1250
 358.1875
 358.2500
 358.3125
 358.3750
 358.4375
 358.5000
 358.5625
 358.6250
 358.6875
 358.7500
 358.8125
 358.8750
 358.9375
 359.0000
 359.0625
 359.1250
 359.1875
 359.2500
 359.3125
 359.3750
 359.4375
 359.5000
 359.5625
 359.6250
 359.6875
 359.7500
 359.8125
 359.8750
 359.9375
 360.0000
 360.0625
 360.1250
 360.1875
 360.2500
 360.3125
 360.3750
 360.4375
 360.5000
 360.5625
 360.6250
 360.6875
 360.7500
 360.8125
 360.8750
 360.9375
 361.0000
 361.0625
 361.1250
 361.1875
 361.2500
 361.3125
 361.3750
 361.4375
 361.5000
 361.5625
 361.6250
 361.6875
 361.7500
 361.8125
 361.8750
 361.9375
 362.0000
 362.0625
 362.1250
 362.1875
 362.2500
 362.3125
 362.3750
 362.4375
 362.5000
 362.5625
 362.6250
 362.6875
 362.7500
 362.8125
 362.8750
 362.9375
 363.0000
 363.0625
 363.1250
 363.1875
 363.2500
 363.3125
 363.3750
 363.4375
 363.5000
 363.5625
 363.6250
 363.6875
 363.7500
 363.8125
 363.8750
 363.9375
 364.0000
 364.0625
 364.1250
 364.1875
 364.2500
 364.3125
 364.3750
 364.4375
 364.5000
 364.5625
 364.6250
 364.6875
 364.7500
 364.8125
 364.8750
 364.9375
 365.0000
 365.0625
 365.1250
 365.1875
 365.2500
 365.3125
 365.3750
 365.4375
 365.5000
 365.5625
 365.6250
 365.6875
 365.7500
 365.8125
 365.8750
 365.9375
 366.0000
 366.0625
 366.1250
 366.1875
 366.2500
 366.3125
 366.3750
 366.4375
 366.5000
 366.5625
 366.6250
 366.6875
 366.7500
 366.8125
 366.8750
 366.9375
 367.0000
 367.0625
 367.1250
 367.1875
 367.2500
 367.3125
 367.3750
 367.4375
 367.5000
 367.5625
 367.6250
 367.6875
 367.7500
 367.8125
 367.8750
 367.9375
 368.0000
 368.0625
 368.1250
 368.1875
 368.2500
 368.3125
 368.3750
 368.4375
 368.5000
 368.5625
 368.6250
 368.6875
 368.7500
 368.8125
 368.8750
 368.9375
 369.0000
 369.0625
 369.1250
 369.1875
 369.2500
 369.3125
 369.3750
 369.4375
 369.5000
 369.5625
 369.6250
 369.6875
 369.7500
 369.8125
 369.8750
 369.9375
 370.0000
 370.0625
 370.1250
 370.1875
 370.2500
 370.3125
 370.3750
 370.4375
 370.5000
 370.5625
 370.6250
 370.6875
 370.7500
 370.8125
 370.8750
 370.9375
 371.0000
 371.0625
 371.1250
 371.1875
 371.2500
 371.3125
 371.3750
 371.4375
 371.5000
 371.5625
 371.6250
 371.6875
 371.7500
 371.8125
 371.8750
 371.9375
 372.0000
 372.0625
 372.1250
 372.1875
 372.2500
 372.3125
 372.3750
 372.4375
 372.5000
 372.5625
 372.6250
 372.6875
 372.7500
 372.8125
 372.8750
 372.9375
 373.0000
 373.0625
 373.1250
 373.1875
 373.2500
 373.3125
 373.3750
 373.4375
 373.5000
 373.5625
 373.6250
 373.6875
 373.7500
 373.8125
 373.8750
 373.9375
 374.0000
 374.0625
 374.1250
 374.1875
 374.2500
 374.3125
 374.3750
 374.4375
 374.5000
 374.5625
 374.6250
 374.6875
 374.7500
 374.8125
 374.8750
 374.9375
 375.0000
 375.0625
 375.1250
 375.1875
 375.2500
 375.3125
 375.3750
 375.4375
 375.5000
 375.5625
 375.6250
 375.6875
 375.7500
 375.8125
 375.8750
 375.9375
 376.0000
 376.0625
 376.1250
 376.1875
 376.2500
 376.3125
 376.3750
 376.4375
 376.5000
 376.5625
 376.6250
 376.6875
 376.7500
 376.8125
 376.8750
 376.9375
 377.0000
 377.0625
 377.1250
 377.1875
 377.2500
 377.3125
 377.3750
 377.4375
 377.5000
 377.5625
 377.6250
 377.6875
 377.7500
 377.8125
 377.8750
 377.9375
 378.0000
 378.0625
 378.1250
 378.1875
 378.2500
 378.3125
 378.3750
 378.4375
 378.5000
 378.5625
 378.6250
 378.6875
 378.7500
 378.8125
 378.8750
 378.9375
 379.0000
 379.0625
 379.1250
 379.1875
 379.2500
 379.3125
 379.3750
 379.4375
 379.5000
 379.5625
 379.6250
 379.6875
 379.7500
 379.8125
 379.8750
 379.9375
 380.0000
 380.0625
 380.1250
 380.1875
 380.2500
 380.3125
 380.3750
 380.4375
 380.5000
 380.5625
 380.6250
 380.6875
 380.7500
 380.8125
 380.8750
 380.9375
 381.0000
 381.0625
 381.1250
 381.1875
 381.2500
 381.3125
 381.3750
 381.4375
 381.5000
 381.5625
 381.6250
 381.6875
 381.7500
 381.8125
 381.8750
 381.9375
 382.0000
 382.0625
 382.1250
 382.1875
 382.2500
 382.3125
 382.3750
 382.4375
 382.5000
 382.5625
 382.6250
 382.6875
 382.7500
 382.8125
 382.8750
 382.9375
 383.0000
 383.0625
 383.1250
 383.1875
 383.2500
 383.3125
 383.3750
 383.4375
 383.5000
 383.5625
 383.6250
 383.6875
 383.7500
 383.8125
 383.8750
 383.9375
 384.0000
 384.0625
 384.1250
 384.1875
 384.2500
 384.3125
 384.3750
 384.4375
 384.5000
 384.5625
 384.6250
 384.6875
 384.7500
 384.8125
 384.8750
 384.9375
 385.0000
 385.0625
 385.1250
 385.1875
 385.2500
 385.3125
 385.3750
 385.4375
 385.5000
 385.5625
 385.6250
 385.6875
 385.7500
 385.8125
 385.8750
 385.9375
 386.0000
 386.0625
 386.1250
 386.1875
 386.2500
 386.3125
 386.3750
 386.4375
 386.5000
 386.5625
 386.6250
 386.6875
 386.7500
 386.8125
 386.8750
 386.9375
 387.0000
 387.0625
 387.1250
 387.1875
 387.2500
 387.3125
 387.3750
 387.4375
 387.5000
 387.5625
 387.6250
 387.6875
 387.7500
 387.8125
 387.8750
 387.9375
 388.0000
 388.0625
 388.1250
 388.1875
 388.2500
 388.3125
 388.3750
 388.4375
 388.5000
 388.5625
 388.6250
 388.6875
 388.7500
 388.8125
 388.8750
 388.9375
 389.0000
 389.0625
 389.1250
 389.1875
 389.2500
 389.3125
 389.3750
 389.4375
 389.5000
 389.5625
 389.6250
 389.6875
 389.7500
 389.8125
 389.8750
 389.9375
 390.0000
 390.0625
 390.1250
 390.1875
 390.2500
 390.3125
 390.3750
 390.4375
 390.5000
 390.5625
 390.6250
 390.6875
 390.7500
 390.8125
 390.8750
 390.9375
 391.0000
 391.0625
 391.1250
 391.1875
 391.2500
 391.3125
 391.3750
 391.4375
 391.5000
 391.5625
 391.6250
 391.6875
 391.7500
 391.8125
 391.8750
 391.9375
 392.0000
 392.0625
 392.1250
 392.1875
 392.2500
 392.3125
 392.3750
 392.4375
 392.5000
 392.5625
 392.6250
 392.6875
 392.7500
 392.8125
 392.8750
 392.9375
 393.0000
 393.0625
 393.1250
 393.1875
 393.2500
 393.3125
 393.3750
 393.4375
 393.5000
 393.5625
 393.6250
 393.6875
 393.7500
 393.8125
 393.8750
 393.9375
 394.0000
 394.0625
 394.1250
 394.1875
 394.2500
 394.3125
 394.3750
 394.4375
 394.5000
 394.5625
 394.6250
 394.6875
 394.7500
 394.8125
 394.8750
 394.9375
 395.0000
 395.0625
 395.1250
 395.1875
 395.2500
 395.3125
 395.3750
 395.4375
 395.5000
 395.5625
 395.6250
 395.6875
 395.7500
 395.8125
 395.8750
 395.9375
 396.0000
 396.0625
 396.1250
 396.1875
 396.2500
 396.3125
 396.3750
 396.4375
 396.5000
 396.5625
 396.6250
 396.6875
 396.7500
 396.8125
 396.8750
 396.9375
 397.0000
 397.0625
 397.1250
 397.1875
 397.2500
 397.3125
 397.3750
 397.4375
 397.5000
 397.5625
 397.6250
 397.6875
 397.7500
 397.8125
 397.8750
 397.9375
 398.0000
 398.0625
 398.1250
 398.1875
 398.2500
 398.3125
 398.3750
 398.4375
 398.5000
 398.5625
 398.6250
 398.6875
 398.7500
 398.8125
 398.8750
 398.9375
 399.0000
 399.0625
 399.1250
 399.1875
 399.2500
 399.3125
 399.3750
 399.4375
 399.5000
 399.5625
 399.6250
 399.6875
 399.7500
 399.8125
 399.8750
 399.9375
 400.0000
 400.0625
 400.1250
 400.1875
 400.2500
 400.3125
 400.3750
 400.4375
 400.5000
 400.5625
 400.6250
 400.6875
 400.7500
 400.8125
 400.8750
 400.9375
 401.0000
 401.0625
 401.1250
 401.1875
 401.2500
 401.3125
 401.3750
 401.4375
 401.5000
 401.5625
 401.6250
 401.6875
 401.7500
 401.8125
 401.8750
 401.9375
 402.0000
 402.0625
 402.1250
 402.1875
 402.2500
 402.3125
 402.3750
 402.4375
 402.5000
 402.5625
 402.6250
 402.6875
 402.7500
 402.8125
 402.8750
 402.9375
 403.0000
 403.0625
 403.1250
 403.1875
 403.2500
 403.3125
 403.3750
 403.4375
 403.5000
 403.5625
 403.6250
 403.6875
 403.7500
 403.8125
 403.8750
 403.9375
 404.0000
 404.0625
 404.1250
 404.1875
 404.2500
 404.3125
 404.3750
 404.4375
 404.5000
 404.5625
 404.6250
 404.6875
 404.7500
 404.8125
 404.8750
 404.9375
 405.0000
 405.0625
 405.1250
 405.1875
 405.2500
 405.3125
 405.3750
 405.4375
 405.5000
 405.5625
 405.6250
 405.6875
 405.7500
 405.8125
 405.8750
 405.9375
 406.0000
 406.0625
 406.1250
 406.1875
 406.2500
 406.3125
 406.3750
 406.4375
 406.5000
 406.5625
 406.6250
 406.6875
 406.7500
 406.8125
 406.8750
 406.9375
 407.0000
 407.0625
 407.1250
 407.1875
 407.2500
 407.3125
 407.3750
 407.4375
 407.5000
 407.5625
 407.6250
 407.6875
 407.7500
 407.8125
 407.8750
 407.9375
 408.0000
 408.0625
 408.1250
 408.1875
 408.2500
 408.3125
 408.3750
 408.4375
 408.5000
 408.5625
 408.6250
 408.6875
 408.7500
 408.8125
 408.8750
 408.9375
 409.0000
 409.0625
 409.1250
 409.1875
 409.2500
 409.3125
 409.3750
 409.4375
 409.5000
 409.5625
 409.6250
 409.6875
 409.7500
 409.8125
 409.8750
 409.9375
 410.0000
 410.0625
 410.1250
 410.1875
 410.2500
 410.3125
 410.3750
 410.4375
 410.5000
 410.5625
 410.6250
 410.6875
 410.7500
 410.8125
 410.8750
 410.9375
 411.0000
 411.0625
 411.1250
 411.1875
 411.2500
 411.3125
 411.3750
 411.4375
 411.5000
 411.5625
 411.6250
 411.6875
 411.7500
 411.8125
 411.8750
 411.9375
 412.0000
 412.0625
 412.1250
 412.1875
 412.2500
 412.3125
 412.3750
 412.4375
 412.5000
 412.5625
 412.6250
 412.6875
 412.7500
 412.8125
 412.8750
 412.9375
 413.0000
 413.0625
 413.1250
 413.1875
 413.2500
 413.3125
 413.3750
 413.4375
 413.5000
 413.5625
 413.6250
 413.6875
 413.7500
 413.8125
 413.8750
 413.9375
 414.0000
 414.0625
 414.1250
 414.1875
 414.2500
 414.3125
 414.3750
 414.4375
 414.5000
 414.5625
 414.6250
 414.6875
 414.7500
 414.8125
 414.8750
 414.9375
 415.0000
 415.0625
 415.1250
 415.1875
 415.2500
 415.3125
 415.3750
 415.4375
 415.5000
 415.5625
 415.6250
 415.6875
 415.7500
 415.8125
 415.8750
 415.9375
 416.0000
 416.0625
 416.1250
 416.1875
 416.2500
 416.3125
 416.3750
 416.4375
 416.5000
 416.5625
 416.6250
 416.6875
 416.7500
 416.8125
 416.8750
 416.9375
 417.0000
 417.0625
 417.1250
 417.1875
 417.2500
 417.3125
 417.3750
 417.4375
 417.5000
 417.5625
 417.6250
 417.6875
 417.7500
 417.8125
 417.8750
 417.9375
 418.0000
 418.0625
 418.1250
 418.1875
 418.2500
 418.3125
 418.3750
 418.4375
 418.5000
 418.5625
 418.6250
 418.6875
 418.7500
 418.8125
 418.8750
 418.9375
 419.0000
 419.0625
 419.1250
 419.1875
 419.2500
 419.3125
 419.3750
 419.4375
 419.5000
 419.5625
 419.6250
 419.6875
 419.7500
 419.8125
 419.8750
 419.9375
 420.0000
 420.0625
 420.1250
 420.1875
 420.2500
 420.3125
 420.3750
 420.4375
 420.5000
 420.5625
 420.6250
 420.6875
 420.7500
 420.8125
 420.8750
 420.9375
 421.0000
 421.0625
 421.1250
 421.1875
 421.2500
 421.3125
 421.3750
 421.4375
 421.5000
 421.5625
 421.6250
 421.6875
 421.7500
 421.8125
 421.8750
 421.9375
 422.0000
 422.0625
 422.1250
 422.1875
 422.2500
 422.3125
 422.3750
 422.4375
 422.5000
 422.5625
 422.6250
 422.6875
 422.7500
 422.8125
 422.8750
 422.9375
 423.0000
 423.0625
 423.1250
 423.1875
 423.2500
 423.3125
 423.3750
 423.4375
 423.5000
 423.5625
 423.6250
 423.6875
 423.7500
 423.8125
 423.8750
 423.9375
 424.0000
 424.0625
 424.1250
 424.1875
 424.2500
 424.3125
 424.3750
 424.4375
 424.5000
 424.5625
 424.6250
 424.6875
 424.7500
 424.8125
 424.8750
 424.9375
 425.0000
 425.0625
 425.1250
 425.1875
 425.2500
 425.3125
 425.3750
 425.4375
 425.5000
 425.5625
 425.6250
 425.6875
 425.7500
 425.8125
 425.8750
 425.9375
 426.0000
 426.0625
 426.1250
 426.1875
 426.2500
 426.3125
 426.3750
 426.4375
 426.5000
 426.5625
 426.6250
 426.6875
 426.7500
 426.8125
 426.8750
 426.9375
 427.0000
 427.0625
 427.1250
 427.1875
 427.2500
 427.3125
 427.3750
 427.4375
 427.5000
 427.5625
 427.6250
 427.6875
 427.7500
 427.8125
 427.8750
 427.9375
 428.0000
 428.0625
 428.1250
 428.1875
 428.2500
 428.3125
 428.3750
 428.4375
 428.5000
 428.5625
 428.6250
 428.6875
 428.7500
 428.8125
 428.8750
 428.9375
 429.0000
 429.0625
 429.1250
 429.1875
 429.2500
 429.3125
 429.3750
 429.4375
 429.5000
 429.5625
 429.6250
 429.6875
 429.7500
 429.8125
 429.8750
 429.9375
 430.0000
 430.0625
 430.1250
 430.1875
 430.2500
 430.3125
 430.3750
 430.4375
 430.5000
 430.5625
 430.6250
 430.6875
 430.7500
 430.8125
 430.8750
 430.9375
 431.0000
 431.0625
 431.1250
 431.1875
 431.2500
 431.3125
 431.3750
 431.4375
 431.5000
 431.5625
 431.6250
 431.6875
 431.7500
 431.8125
 431.8750
 431.9375
 432.0000
 432.0625
 432.1250
 432.1875
 432.2500
 432.3125
 432.3750
 432.4375
 432.5000
 432.5625
 432.6250
 432.6875
 432.7500
 432.8125
 432.8750
 432.9375
 433.0000
 433.0625
 433.1250
 433.1875
 433.2500
 433.3125
 433.3750
 433.4375
 433.5000
 433.5625
 433.6250
 433.6875
 433.7500
 433.8125
 433.8750
 433.9375
 434.0000
 434.0625
 434.1250
 434.1875
 434.2500
 434.3125
 434.3750
 434.4375
 434.5000
 434.5625
 434.6250
 434.6875
 434.7500
 434.8125
 434.8750
 434.9375
 435.0000
 435.0625
 435.1250
 435.1875
 435.2500
 435.3125
 435.3750
 435.4375
 435.5000
 435.5625
 435.6250
 435.6875
 435.7500
 435.8125
 435.8750
 435.9375
 436.0000
 436.0625
 436.1250
 436.1875
 436.2500
 436.3125
 436.3750
 436.4375
 436.5000
 436.5625
 436.6250
 436.6875
 436.7500
 436.8125
 436.8750
 436.9375
 437.0000
 437.0625
 437.1250
 437.1875
 437.2500
 437.3125
 437.3750
 437.4375
 437.5000
 437.5625
 437.6250
 437.6875
 437.7500
 437.8125
 437.8750
 437.9375
 438.0000
 438.0625
 438.1250
 438.1875
 438.2500
 438.3125
 438.3750
 438.4375
 438.5000
 438.5625
 438.6250
 438.6875
 438.7500
 438.8125
 438.8750
 438.9375
 439.0000
 439.0625
 439.1250
 439.1875
 439.2500
 439.3125
 439.3750
 439.4375
 439.5000
 439.5625
 439.6250
 439.6875
 439.7500
 439.8125
 439.8750
 439.9375
 440.0000
 440.0625
 440.1250
 440.1875
 440.2500
 440.3125
 440.3750
 440.4375
 440.5000
 440.5625
 440.6250
 440.6875
 440.7500
 440.8125
 440.8750
 440.9375
 441.0000
 441.0625
 441.1250
 441.1875
 441.2500
 441.3125
 441.3750
 441.4375
 441.5000
 441.5625
 441.6250
 441.6875
 441.7500
 441.8125
 441.8750
 441.9375
 442.0000
 442.0625
 442.1250
 442.1875
 442.2500
 442.3125
 442.3750
 442.4375
 442.5000
 442.5625
 442.6250
 442.6875
 442.7500
 442.8125
 442.8750
 442.9375
 443.0000
 443.0625
 443.1250
 443.1875
 443.2500
 443.3125
 443.3750
 443.4375
 443.5000
 443.5625
 443.6250
 443.6875
 443.7500
 443.8125
 443.8750
 443.9375
 444.0000
 444.0625
 444.1250
 444.1875
 444.2500
 444.3125
 444.3750
 444.4375
 444.5000
 444.5625
 444.6250
 444.6875
 444.7500
 444.8125
 444.8750
 444.9375
 445.0000
 445.0625
 445.1250
 445.1875
 445.2500
 445.3125
 445.3750
 445.4375
 445.5000
 445.5625
 445.6250
 445.6875
 445.7500
 445.8125
 445.8750
 445.9375
 446.0000
 446.0625
 446.1250
 446.1875
 446.2500
 446.3125
 446.3750
 446.4375
 446.5000
 446.5625
 446.6250
 446.6875
 446.7500
 446.8125
 446.8750
 446.9375
 447.0000
 447.0625
 447.1250
 447.1875
 447.2500
 447.3125
 447.3750
 447.4375
 447.5000
 447.5625
 447.6250
 447.6875
 447.7500
 447.8125
 447.8750
 447.9375
 448.0000
 448.0625
 448.1250
 448.1875
 448.2500
 448.3125
 448.3750
 448.4375
 448.5000
 448.5625
 448.6250
 448.6875
 448.7500
 448.8125
 448.8750
 448.9375
 449.0000
 449.0625
 449.1250
 449.1875
 449.2500
 449.3125
 449.3750
 449.4375
 449.5000
 449.5625
 449.6250
 449.6875
 449.7500
 449.8125
 449.8750
 449.9375
 450.0000
 450.0625
 450.1250
 450.1875
 450.2500
 450.3125
 450.3750
 450.4375
 450.5000
 450.5625
 450.6250
 450.6875
 450.7500
 450.8125
 450.8750
 450.9375
 451.0000
 451.0625
 451.1250
 451.1875
 451.2500
 451.3125
 451.3750
 451.4375
 451.5000
 451.5625
 451.6250
 451.6875
 451.7500
 451.8125
 451.8750
 451.9375
 452.0000
 452.0625
 452.1250
 452.1875
 452.2500
 452.3125
 452.3750
 452.4375
 452.5000
 452.5625
 452.6250
 452.6875
 452.7500
 452.8125
 452.8750
 452.9375
 453.0000
 453.0625
 453.1250
 453.1875
 453.2500
 453.3125
 453.3750
 453.4375
 453.5000
 453.5625
 453.6250
 453.6875
 453.7500
 453.8125
 453.8750
 453.9375
 454.0000
 454.0625
 454.1250
 454.1875
 454.2500
 454.3125
 454.3750
 454.4375
 454.5000
 454.5625
 454.6250
 454.6875
 454.7500
 454.8125
 454.8750
 454.9375
 455.0000
 455.0625
 455.1250
 455.1875
 455.2500
 455.3125
 455.3750
 455.4375
 455.5000
 455.5625
 455.6250
 455.6875
 455.7500
 455.8125
 455.8750
 455.9375
 456.0000
 456.0625
 456.1250
 456.1875
 456.2500
 456.3125
 456.3750
 456.4375
 456.5000
 456.5625
 456.6250
 456.6875
 456.7500
 456.8125
 456.8750
 456.9375
 457.0000
 457.0625
 457.1250
 457.1875
 457.2500
 457.3125
 457.3750
 457.4375
 457.5000
 457.5625
 457.6250
 457.6875
 457.7500
 457.8125
 457.8750
 457.9375
 458.0000
 458.0625
 458.1250
 458.1875
 458.2500
 458.3125
 458.3750
 458.4375
 458.5000
 458.5625
 458.6250
 458.6875
 458.7500
 458.8125
 458.8750
 458.9375
 459.0000
 459.0625
 459.1250
 459.1875
 459.2500
 459.3125
 459.3750
 459.4375
 459.5000
 459.5625
 459.6250
 459.6875
 459.7500
 459.8125
 459.8750
 459.9375
 460.0000
 460.0625
 460.1250
 460.1875
 460.2500
 460.3125
 460.3750
 460.4375
 460.5000
 460.5625
 460.6250
 460.6875
 460.7500
 460.8125
 460.8750
 460.9375
 461.0000
 461.0625
 461.1250
 461.1875
 461.2500
 461.3125
 461.3750
 461.4375
 461.5000
 461.5625
 461.6250
 461.6875
 461.7500
 461.8125
 461.8750
 461.9375
 462.0000
 462.0625
 462.1250
 462.1875
 462.2500
 462.3125
 462.3750
 462.4375
 462.5000
 462.5625
 462.6250
 462.6875
 462.7500
 462.8125
 462.8750
 462.9375
 463.0000
 463.0625
 463.1250
 463.1875
 463.2500
 463.3125
 463.3750
 463.4375
 463.5000
 463.5625
 463.6250
 463.6875
 463.7500
 463.8125
 463.8750
 463.9375
 464.0000
 464.0625
 464.1250
 464.1875
 464.2500
 464.3125
 464.3750
 464.4375
 464.5000
 464.5625
 464.6250
 464.6875
 464.7500
 464.8125
 464.8750
 464.9375
 465.0000
 465.0625
 465.1250
 465.1875
 465.2500
 465.3125
 465.3750
 465.4375
 465.5000
 465.5625
 465.6250
 465.6875
 465.7500
 465.8125
 465.8750
 465.9375
 466.0000
 466.0625
 466.1250
 466.1875
 466.2500
 466.3125
 466.3750
 466.4375
 466.5000
 466.5625
 466.6250
 466.6875
 466.7500
 466.8125
 466.8750
 466.9375
 467.0000
 467.0625
 467.1250
 467.1875
 467.2500
 467.3125
 467.3750
 467.4375
 467.5000
 467.5625
 467.6250
 467.6875
 467.7500
 467.8125
 467.8750
 467.9375
 468.0000
 468.0625
 468.1250
 468.1875
 468.2500
 468.3125
 468.3750
 468.4375
 468.5000
 468.5625
 468.6250
 468.6875
 468.7500
 468.8125
 468.8750
 468.9375
 469.0000
 469.0625
 469.1250
 469.1875
 469.2500
 469.3125
 469.3750
 469.4375
 469.5000
 469.5625
 469.6250
 469.6875
 469.7500
 469.8125
 469.8750
 469.9375
 470.0000
 470.0625
 470.1250
 470.1875
 470.2500
 470.3125
 470.3750
 470.4375
 470.5000
 470.5625
 470.6250
 470.6875
 470.7500
 470.8125
 470.8750
 470.9375
 471.0000
 471.0625
 471.1250
 471.1875
 471.2500
 471.3125
 471.3750
 471.4375
 471.5000
 471.5625
 471.6250
 471.6875
 471.7500
 471.8125
 471.8750
 471.9375
 472.0000
 472.0625
 472.1250
 472.1875
 472.2500
 472.3125
 472.3750
 472.4375
 472.5000
 472.5625
 472.6250
 472.6875
 472.7500
 472.8125
 472.8750
 472.9375
 473.0000
 473.0625
 473.1250
 473.1875
 473.2500
 473.3125
 473.3750
 473.4375
 473.5000
 473.5625
 473.6250
 473.6875
 473.7500
 473.8125
 473.8750
 473.9375
 474.0000
 474.0625
 474.1250
 474.1875
 474.2500
 474.3125
 474.3750
 474.4375
 474.5000
 474.5625
 474.6250
 474.6875
 474.7500
 474.8125
 474.8750
 474.9375
 475.0000
 475.0625
 475.1250
 475.1875
 475.2500
 475.3125
 475.3750
 475.4375
 475.5000
 475.5625
 475.6250
 475.6875
 475.7500
 475.8125
 475.8750
 475.9375
 476.0000
 476.0625
 476.1250
 476.1875
 476.2500
 476.3125
 476.3750
 476.4375
 476.5000
 476.5625
 476.6250
 476.6875
 476.7500
 476.8125
 476.8750
 476.9375
 477.0000
 477.0625
 477.1250
 477.1875
 477.2500
 477.3125
 477.3750
 477.4375
 477.5000
 477.5625
 477.6250
 477.6875
 477.7500
 477.8125
 477.8750
 477.9375
 478.0000
 478.0625
 478.1250
 478.1875
 478.2500
 478.3125
 478.3750
 478.4375
 478.5000
 478.5625
 478.6250
 478.6875
 478.7500
 478.8125
 478.8750
 478.9375
 479.0000
 479.0625
 479.1250
 479.1875
 479.2500
 479.3125
 479.3750
 479.4375
 479.5000
 479.5625
 479.6250
 479.6875
 479.7500
 479.8125
 479.8750
 479.9375
 480.0000
 480.0625
 480.1250
 480.1875
 480.2500
 480.3125
 480.3750
 480.4375
 480.5000
 480.5625
 480.6250
 480.6875
 480.7500
 480.8125
 480.8750
 480.9375
 481.0000
 481.0625
 481.1250
 481.1875
 481.2500
 481.3125
 481.3750
 481.4375
 481.5000
 481.5625
 481.6250
 481.6875
 481.7500
 481.8125
 481.8750
 481.9375
 482.0000
 482.0625
 482.1250
 482.1875
 482.2500
 482.3125
 482.3750
 482.4375
 482.5000
 482.5625
 482.6250
 482.6875
 482.7500
 482.8125
 482.8750
 482.9375
 483.0000
 483.0625
 483.1250
 483.1875
 483.2500
 483.3125
 483.3750
 483.4375
 483.5000
 483.5625
 483.6250
 483.6875
 483.7500
 483.8125
 483.8750
 483.9375
 484.0000
 484.0625
 484.1250
 484.1875
 484.2500
 484.3125
 484.3750
 484.4375
 484.5000
 484.5625
 484.6250
 484.6875
 484.7500
 484.8125
 484.8750
 484.9375
 485.0000
 485.0625
 485.1250
 485.1875
 485.2500
 485.3125
 485.3750
 485.4375
 485.5000
 485.5625
 485.6250
 485.6875
 485.7500
 485.8125
 485.8750
 485.9375
 486.0000
 486.0625
 486.1250
 486.1875
 486.2500
 486.3125
 486.3750
 486.4375
 486.5000
 486.5625
 486.6250
 486.6875
 486.7500
 486.8125
 486.8750
 486.9375
 487.0000
 487.0625
 487.1250
 487.1875
 487.2500
 487.3125
 487.3750
 487.4375
 487.5000
 487.5625
 487.6250
 487.6875
 487.7500
 487.8125
 487.8750
 487.9375
 488.0000
 488.0625
 488.1250
 488.1875
 488.2500
 488.3125
 488.3750
 488.4375
 488.5000
 488.5625
 488.6250
 488.6875
 488.7500
 488.8125
 488.8750
 488.9375
 489.0000
 489.0625
 489.1250
 489.1875
 489.2500
 489.3125
 489.3750
 489.4375
 489.5000
 489.5625
 489.6250
 489.6875
 489.7500
 489.8125
 489.8750
 489.9375
 490.0000
 490.0625
 490.1250
 490.1875
 490.2500
 490.3125
 490.3750
 490.4375
 490.5000
 490.5625
 490.6250
 490.6875
 490.7500
 490.8125
 490.8750
 490.9375
 491.0000
 491.0625
 491.1250
 491.1875
 491.2500
 491.3125
 491.3750
 491.4375
 491.5000
 491.5625
 491.6250
 491.6875
 491.7500
 491.8125
 491.8750
 491.9375
 492.0000
 492.0625
 492.1250
 492.1875
 492.2500
 492.3125
 492.3750
 492.4375
 492.5000
 492.5625
 492.6250
 492.6875
 492.7500
 492.8125
 492.8750
 492.9375
 493.0000
 493.0625
 493.1250
 493.1875
 493.2500
 493.3125
 493.3750
 493.4375
 493.5000
 493.5625
 493.6250
 493.6875
 493.7500
 493.8125
 493.8750
 493.9375
 494.0000
 494.0625
 494.1250
 494.1875
 494.2500
 494.3125
 494.3750
 494.4375
 494.5000
 494.5625
 494.6250
 494.6875
 494.7500
 494.8125
 494.8750
 494.9375
 495.0000
 495.0625
 495.1250
 495.1875
 495.2500
 495.3125
 495.3750
 495.4375
 495.5000
 495.5625
 495.6250
 495.6875
 495.7500
 495.8125
 495.8750
 495.9375
 496.0000
 496.0625
 496.1250
 496.1875
 496.2500
 496.3125
 496.3750
 496.4375
 496.5000
 496.5625
 496.6250
 496.6875
 496.7500
 496.8125
 496.8750
 496.9375
 497.0000
 497.0625
 497.1250
 497.1875
 497.2500
 497.3125
 497.3750
 497.4375
 497.5000
 497.5625
 497.6250
 497.6875
 497.7500
 497.8125
 497.8750
 497.9375
 498.0000
 498.0625
 498.1250
 498.1875
 498.2500
 498.3125
 498.3750
 498.4375
 498.5000
 498.5625
 498.6250
 498.6875
 498.7500
 498.8125
 498.8750
 498.9375
 499.0000
 499.0625
 499.1250
 499.1875
 499.2500
 499.3125
 499.3750
 499.4375
 499.5000
 499.5625
 499.6250
 499.6875
 499.7500
 499.8125
 499.8750
 499.9375
 500.0000
 500.0625
 500.1250
 500.1875
 500.2500
 500.3125
 500.3750
 500.4375
 500.5000
 500.5625
 500.6250
 500.6875
 500.7500
 500.8125
 500.8750
 500.9375
 501.0000
 501.0625
 501.1250
 501.1875
 501.2500
 501.3125
 501.3750
 501.4375
 501.5000
 501.5625
 501.6250
 501.6875
 501.7500
 501.8125
 501.8750
 501.9375
 502.0000
 502.0625
 502.1250
 502.1875
 502.2500
 502.3125
 502.3750
 502.4375
 502.5000
 502.5625
 502.6250
 502.6875
 502.7500
 502.8125
 502.8750
 502.9375
 503.0000
 503.0625
 503.1250
 503.1875
 503.2500
 503.3125
 503.3750
 503.4375
 503.5000
 503.5625
 503.6250
 503.6875
 503.7500
 503.8125
 503.8750
 503.9375
 504.0000
 504.0625
 504.1250
 504.1875
 504.2500
 504.3125
 504.3750
 504.4375
 504.5000
 504.5625
 504.6250
 504.6875
 504.7500
 504.8125
 504.8750
 504.9375
 505.0000
 505.0625
 505.1250
 505.1875
 505.2500
 505.3125
 505.3750
 505.4375
 505.5000
 505.5625
 505.6250
 505.6875
 505.7500
 505.8125
 505.8750
 505.9375
 506.0000
 506.0625
 506.1250
 506.1875
 506.2500
 506.3125
 506.3750
 506.4375
 506.5000
 506.5625
 506.6250
 506.6875
 506.7500
 506.8125
 506.8750
 506.9375
 507.0000
 507.0625
 507.1250
 507.1875
 507.2500
 507.3125
 507.3750
 507.4375
 507.5000
 507.5625
 507.6250
 507.6875
 507.7500
 507.8125
 507.8750
 507.9375
 508.0000
 508.0625
 508.1250
 508.1875
 508.2500
 508.3125
 508.3750
 508.4375
 508.5000
 508.5625
 508.6250
 508.6875
 508.7500
 508.8125
 508.8750
 508.9375
 509.0000
 509.0625
 509.1250
 509.1875
 509.2500
 509.3125
 509.3750
 509.4375
 509.5000
 509.5625
 509.6250
 509.6875
 509.7500
 509.8125
 509.8750
 509.9375
 510.0000
 510.0625
 510.1250
 510.1875
 510.2500
 510.3125
 510.3750
 510.4375
 510.5000
 510.5625
 510.6250
 510.6875
 510.7500
 510.8125
 510.8750
 510.9375
 511.0000
 511.0625
 511.1250
 511.1875
 511.2500
 511.3125
 511.3750
 511.4375
 511.5000
 511.5625
 511.6250
 511.6875
 511.7500
 511.8125
 511.8750
 511.9375
 512.0000
 512.0625
 512.1250
 512.1875
 512.2500
 512.3125
 512.3750
 512.4375
 512.5000
 512.5625
 512.6250
 512.6875
 512.7500
 512.8125
 512.8750
 512.9375
 513.0000
 513.0625
 513.1250
 513.1875
 513.2500
 513.3125
 513.3750
 513.4375
 513.5000
 513.5625
 513.6250
 513.6875
 513.7500
 513.8125
 513.8750
 513.9375
 514.0000
 514.0625
 514.1250
 514.1875
 514.2500
 514.3125
 514.3750
 514.4375
 514.5000
 514.5625
 514.6250
 514.6875
 514.7500
 514.8125
 514.8750
 514.9375
 515.0000
 515.0625
 515.1250
 515.1875
 515.2500
 515.3125
 515.3750
 515.4375
 515.5000
 515.5625
 515.6250
 515.6875
 515.7500
 515.8125
 515.8750
 515.9375
 516.0000
 516.0625
 516.1250
 516.1875
 516.2500
 516.3125
 516.3750
 516.4375
 516.5000
 516.5625
 516.6250
 516.6875
 516.7500
 516.8125
 516.8750
 516.9375
 517.0000
 517.0625
 517.1250
 517.1875
 517.2500
 517.3125
 517.3750
 517.4375
 517.5000
 517.5625
 517.6250
 517.6875
 517.7500
 517.8125
 517.8750
 517.9375
 518.0000
 518.0625
 518.1250
 518.1875
 518.2500
 518.3125
 518.3750
 518.4375
 518.5000
 518.5625
 518.6250
 518.6875
 518.7500
 518.8125
 518.8750
 518.9375
 519.0000
 519.0625
 519.1250
 519.1875
 519.2500
 519.3125
 519.3750
 519.4375
 519.5000
 519.5625
 519.6250
 519.6875
 519.7500
 519.8125
 519.8750
 519.9375
 520.0000
 520.0625
 520.1250
 520.1875
 520.2500
 520.3125
 520.3750
 520.4375
 520.5000
 520.5625
 520.6250
 520.6875
 520.7500
 520.8125
 520.8750
 520.9375
 521.0000
 521.0625
 521.1250
 521.1875
 521.2500
 521.3125
 521.3750
 521.4375
 521.5000
 521.5625
 521.6250
 521.6875
 521.7500
 521.8125
 521.8750
 521.9375
 522.0000
 522.0625
 522.1250
 522.1875
 522.2500
 522.3125
 522.3750
 522.4375
 522.5000
 522.5625
 522.6250
 522.6875
 522.7500
 522.8125
 522.8750
 522.9375
 523.0000
 523.0625
 523.1250
 523.1875
 523.2500
 523.3125
 523.3750
 523.4375
 523.5000
 523.5625
 523.6250
 523.6875
 523.7500
 523.8125
 523.8750
 523.9375
 524.0000
 524.0625
 524.1250
 524.1875
 524.2500
 524.3125
 524.3750
 524.4375
 524.5000
 524.5625
 524.6250
 524.6875
 524.7500
 524.8125
 524.8750
 524.9375
 525.0000
 525.0625
 525.1250
 525.1875
 525.2500
 525.3125
 525.3750
 525.4375
 525.5000
 525.5625
 525.6250
 525.6875
 525.7500
 525.8125
 525.8750
 525.9375
 526.0000
 526.0625
 526.1250
 526.1875
 526.2500
 526.3125
 526.3750
 526.4375
 526.5000
 526.5625
 526.6250
 526.6875
 526.7500
 526.8125
 526.8750
 526.9375
 527.0000
 527.0625
 527.1250
 527.1875
 527.2500
 527.3125
 527.3750
 527.4375
 527.5000
 527.5625
 527.6250
 527.6875
 527.7500
 527.8125
 527.8750
 527.9375
 528.0000
 528.0625
 528.1250
 528.1875
 528.2500
 528.3125
 528.3750
 528.4375
 528.5000
 528.5625
 528.6250
 528.6875
 528.7500
 528.8125
 528.8750
 528.9375
 529.0000
 529.0625
 529.1250
 529.1875
 529.2500
 529.3125
 529.3750
 529.4375
 529.5000
 529.5625
 529.6250
 529.6875
 529.7500
 529.8125
 529.8750
 529.9375
 530.0000
 530.0625
 530.1250
 530.1875
 530.2500
 530.3125
 530.3750
 530.4375
 530.5000
 530.5625
 530.6250
 530.6875
 530.7500
 530.8125
 530.8750
 530.9375
 531.0000
 531.0625
 531.1250
 531.1875
 531.2500
 531.3125
 531.3750
 531.4375
 531.5000
 531.5625
 531.6250
 531.6875
 531.7500
 531.8125
 531.8750
 531.9375
 532.0000
 532.0625
 532.1250
 532.1875
 532.2500
 532.3125
 532.3750
 532.4375
 532.5000
 532.5625
 532.6250
 532.6875
 532.7500
 532.8125
 532.8750
 532.9375
 533.0000
 533.0625
 533.1250
 533.1875
 533.2500
 533.3125
 533.3750
 533.4375
 533.5000
 533.5625
 533.6250
 533.6875
 533.7500
 533.8125
 533.8750
 533.9375
 534.0000
 534.0625
 534.1250
 534.1875
 534.2500
 534.3125
 534.3750
 534.4375
 534.5000
 534.5625
 534.6250
 534.6875
 534.7500
 534.8125
 534.8750
 534.9375
 535.0000
 535.0625
 535.1250
 535.1875
 535.2500
 535.3125
 535.3750
 535.4375
 535.5000
 535.5625
 535.6250
 535.6875
 535.7500
 535.8125
 535.8750
 535.9375
 536.0000
 536.0625
 536.1250
 536.1875
 536.2500
 536.3125
 536.3750
 536.4375
 536.5000
 536.5625
 536.6250
 536.6875
 536.7500
 536.8125
 536.8750
 536.9375
 537.0000
 537.0625
 537.1250
 537.1875
 537.2500
 537.3125
 537.3750
 537.4375
 537.5000
 537.5625
 537.6250
 537.6875
 537.7500
 537.8125
 537.8750
 537.9375
 538.0000
 538.0625
 538.1250
 538.1875
 538.2500
 538.3125
 538.3750
 538.4375
 538.5000
 538.5625
 538.6250
 538.6875
 538.7500
 538.8125
 538.8750
 538.9375
 539.0000
 539.0625
 539.1250
 539.1875
 539.2500
 539.3125
 539.3750
 539.4375
 539.5000
 539.5625
 539.6250
 539.6875
 539.7500
 539.8125
 539.8750
 539.9375
 540.0000
 540.0625
 540.1250
 540.1875
 540.2500
 540.3125
 540.3750
 540.4375
 540.5000
 540.5625
 540.6250
 540.6875
 540.7500
 540.8125
 540.8750
 540.9375
 541.0000
 541.0625
 541.1250
 541.1875
 541.2500
 541.3125
 541.3750
 541.4375
 541.5000
 541.5625
 541.6250
 541.6875
 541.7500
 541.8125
 541.8750
 541.9375
 542.0000
 542.0625
 542.1250
 542.1875
 542.2500
 542.3125
 542.3750
 542.4375
 542.5000
 542.5625
 542.6250
 542.6875
 542.7500
 542.8125
 542.8750
 542.9375
 543.0000
 543.0625
 543.1250
 543.1875
 543.2500
 543.3125
 543.3750
 543.4375
 543.5000
 543.5625
 543.6250
 543.6875
 543.7500
 543.8125
 543.8750
 543.9375
 544.0000
 544.0625
 544.1250
 544.1875
 544.2500
 544.3125
 544.3750
 544.4375
 544.5000
 544.5625
 544.6250
 544.6875
 544.7500
 544.8125
 544.8750
 544.9375
 545.0000
 545.0625
 545.1250
 545.1875
 545.2500
 545.3125
 545.3750
 545.4375
 545.5000
 545.5625
 545.6250
 545.6875
 545.7500
 545.8125
 545.8750
 545.9375
 546.0000
 546.0625
 546.1250
 546.1875
 546.2500
 546.3125
 546.3750
 546.4375
 546.5000
 546.5625
 546.6250
 546.6875
 546.7500
 546.8125
 546.8750
 546.9375
 547.0000
 547.0625
 547.1250
 547.1875
 547.2500
 547.3125
 547.3750
 547.4375
 547.5000
 547.5625
 547.6250
 547.6875
 547.7500
 547.8125
 547.8750
 547.9375
 548.0000
 548.0625
 548.1250
 548.1875
 548.2500
 548.3125
 548.3750
 548.4375
 548.5000
 548.5625
 548.6250
 548.6875
 548.7500
 548.8125
 548.8750
 548.9375
 549.0000
 549.0625
 549.1250
 549.1875
 549.2500
 549.3125
 549.3750
 549.4375
 549.5000
 549.5625
 549.6250
 549.6875
 549.7500
 549.8125
 549.8750
 549.9375
 550.0000
 550.0625
 550.1250
 550.1875
 550.2500
 550.3125
 550.3750
 550.4375
 550.5000
 550.5625
 550.6250
 550.6875
 550.7500
 550.8125
 550.8750
 550.9375
 551.0000
 551.0625
 551.1250
 551.1875
 551.2500
 551.3125
 551.3750
 551.4375
 551.5000
 551.5625
 551.6250
 551.6875
 551.7500
 551.8125
 551.8750
 551.9375
 552.0000
 552.0625
 552.1250
 552.1875
 552.2500
 552.3125
 552.3750
 552.4375
 552.5000
 552.5625
 552.6250
 552.6875
 552.7500
 552.8125
 552.8750
 552.9375
 553.0000
 553.0625
 553.1250
 553.1875
 553.2500
 553.3125
 553.3750
 553.4375
 553.5000
 553.5625
 553.6250
 553.6875
 553.7500
 553.8125
 553.8750
 553.9375
 554.0000
 554.0625
 554.1250
 554.1875
 554.2500
 554.3125
 554.3750
 554.4375
 554.5000
 554.5625
 554.6250
 554.6875
 554.7500
 554.8125
 554.8750
 554.9375
 555.0000
 555.0625
 555.1250
 555.1875
 555.2500
 555.3125
 555.3750
 555.4375
 555.5000
 555.5625
 555.6250
 555.6875
 555.7500
 555.8125
 555.8750
 555.9375
 556.0000
 556.0625
 556.1250
 556.1875
 556.2500
 556.3125
 556.3750
 556.4375
 556.5000
 556.5625
 556.6250
 556.6875
 556.7500
 556.8125
 556.8750
 556.9375
 557.0000
 557.0625
 557.1250
 557.1875
 557.2500
 557.3125
 557.3750
 557.4375
 557.5000
 557.5625
 557.6250
 557.6875
 557.7500
 557.8125
 557.8750
 557.9375
 558.0000
 558.0625
 558.1250
 558.1875
 558.2500
 558.3125
 558.3750
 558.4375
 558.5000
 558.5625
 558.6250
 558.6875
 558.7500
 558.8125
 558.8750
 558.9375
 559.0000
 559.0625
 559.1250
 559.1875
 559.2500
 559.3125
 559.3750
 559.4375
 559.5000
 559.5625
 559.6250
 559.6875
 559.7500
 559.8125
 559.8750
 559.9375
 560.0000
 560.0625
 560.1250
 560.1875
 560.2500
 560.3125
 560.3750
 560.4375
 560.5000
 560.5625
 560.6250
 560.6875
 560.7500
 560.8125
 560.8750
 560.9375
 561.0000
 561.0625
 561.1250
 561.1875
 561.2500
 561.3125
 561.3750
 561.4375
 561.5000
 561.5625
 561.6250
 561.6875
 561.7500
 561.8125
 561.8750
 561.9375
 562.0000
 562.0625
 562.1250
 562.1875
 562.2500
 562.3125
 562.3750
 562.4375
 562.5000
 562.5625
 562.6250
 562.6875
 562.7500
 562.8125
 562.8750
 562.9375
 563.0000
 563.0625
 563.1250
 563.1875
 563.2500
 563.3125
 563.3750
 563.4375
 563.5000
 563.5625
 563.6250
 563.6875
 563.7500
 563.8125
 563.8750
 563.9375
 564.0000
 564.0625
 564.1250
 564.1875
 564.2500
 564.3125
 564.3750
 564.4375
 564.5000
 564.5625
 564.6250
 564.6875
 564.7500
 564.8125
 564.8750
 564.9375
 565.0000
 565.0625
 565.1250
 565.1875
 565.2500
 565.3125
 565.3750
 565.4375
 565.5000
 565.5625
 565.6250
 565.6875
 565.7500
 565.8125
 565.8750
 565.9375
 566.0000
 566.0625
 566.1250
 566.1875
 566.2500
 566.3125
 566.3750
 566.4375
 566.5000
 566.5625
 566.6250
 566.6875
 566.7500
 566.8125
 566.8750
 566.9375
 567.0000
 567.0625
 567.1250
 567.1875
 567.2500
 567.3125
 567.3750
 567.4375
 567.5000
 567.5625
 567.6250
 567.6875
 567.7500
 567.8125
 567.8750
 567.9375
 568.0000
 568.0625
 568.1250
 568.1875
 568.2500
 568.3125
 568.3750
 568.4375
 568.5000
 568.5625
 568.6250
 568.6875
 568.7500
 568.8125
 568.8750
 568.9375
 569.0000
 569.0625
 569.1250
 569.1875
 569.2500
 569.3125
 569.3750
 569.4375
 569.5000
 569.5625
 569.6250
 569.6875
 569.7500
 569.8125
 569.8750
 569.9375
 570.0000
 570.0625
 570.1250
 570.1875
 570.2500
 570.3125
 570.3750
 570.4375
 570.5000
 570.5625
 570.6250
 570.6875
 570.7500
 570.8125
 570.8750
 570.9375
 571.0000
 571.0625
 571.1250
 571.1875
 571.2500
 571.3125
 571.3750
 571.4375
 571.5000
 571.5625
 571.6250
 571.6875
 571.7500
 571.8125
 571.8750
 571.9375
 572.0000
 572.0625
 572.1250
 572.1875
 572.2500
 572.3125
 572.3750
 572.4375
 572.5000
 572.5625
 572.6250
 572.6875
 572.7500
 572.8125
 572.8750
 572.9375
 573.0000
 573.0625
 573.1250
 573.1875
 573.2500
 573.3125
 573.3750
 573.4375
 573.5000
 573.5625
 573.6250
 573.6875
 573.7500
 573.8125
 573.8750
 573.9375
 574.0000
 574.0625
 574.1250
 574.1875
 574.2500
 574.3125
 574.3750
 574.4375
 574.5000
 574.5625
 574.6250
 574.6875
 574.7500
 574.8125
 574.8750
 574.9375
 575.0000
 575.0625
 575.1250
 575.1875
 575.2500
 575.3125
 575.3750
 575.4375
 575.5000
 575.5625
 575.6250
 575.6875
 575.7500
 575.8125
 575.8750
 575.9375
 576.0000
 576.0625
 576.1250
 576.1875
 576.2500
 576.3125
 576.3750
 576.4375
 576.5000
 576.5625
 576.6250
 576.6875
 576.7500
 576.8125
 576.8750
 576.9375
 577.0000
 577.0625
 577.1250
 577.1875
 577.2500
 577.3125
 577.3750
 577.4375
 577.5000
 577.5625
 577.6250
 577.6875
 577.7500
 577.8125
 577.8750
 577.9375
 578.0000
 578.0625
 578.1250
 578.1875
 578.2500
 578.3125
 578.3750
 578.4375
 578.5000
 578.5625
 578.6250
 578.6875
 578.7500
 578.8125
 578.8750
 578.9375
 579.0000
 579.0625
 579.1250
 579.1875
 579.2500
 579.3125
 579.3750
 579.4375
 579.5000
 579.5625
 579.6250
 579.6875
 579.7500
 579.8125
 579.8750
 579.9375
 580.0000
 580.0625
 580.1250
 580.1875
 580.2500
 580.3125
 580.3750
 580.4375
 580.5000
 580.5625
 580.6250
 580.6875
 580.7500
 580.8125
 580.8750
 580.9375
 581.0000
 581.0625
 581.1250
 581.1875
 581.2500
 581.3125
 581.3750
 581.4375
 581.5000
 581.5625
 581.6250
 581.6875
 581.7500
 581.8125
 581.8750
 581.9375
 582.0000
 582.0625
 582.1250
 582.1875
 582.2500
 582.3125
 582.3750
 582.4375
 582.5000
 582.5625
 582.6250
 582.6875
 582.7500
 582.8125
 582.8750
 582.9375
 583.0000
 583.0625
 583.1250
 583.1875
 583.2500
 583.3125
 583.3750
 583.4375
 583.5000
 583.5625
 583.6250
 583.6875
 583.7500
 583.8125
 583.8750
 583.9375
 584.0000
 584.0625
 584.1250
 584.1875
 584.2500
 584.3125
 584.3750
 584.4375
 584.5000
 584.5625
 584.6250
 584.6875
 584.7500
 584.8125
 584.8750
 584.9375
 585.0000
 585.0625
 585.1250
 585.1875
 585.2500
 585.3125
 585.3750
 585.4375
 585.5000
 585.5625
 585.6250
 585.6875
 585.7500
 585.8125
 585.8750
 585.9375
 586.0000
 586.0625
 586.1250
 586.1875
 586.2500
 586.3125
 586.3750
 586.4375
 586.5000
 586.5625
 586.6250
 586.6875
 586.7500
 586.8125
 586.8750
 586.9375
 587.0000
 587.0625
 587.1250
 587.1875
 587.2500
 587.3125
 587.3750
 587.4375
 587.5000
 587.5625
 587.6250
 587.6875
 587.7500
 587.8125
 587.8750
 587.9375
 588.0000
 588.0625
 588.1250
 588.1875
 588.2500
 588.3125
 588.3750
 588.4375
 588.5000
 588.5625
 588.6250
 588.6875
 588.7500
 588.8125
 588.8750
 588.9375
 589.0000
 589.0625
 589.1250
 589.1875
 589.2500
 589.3125
 589.3750
 589.4375
 589.5000
 589.5625
 589.6250
 589.6875
 589.7500
 589.8125
 589.8750
 589.9375
 590.0000
 590.0625
 590.1250
 590.1875
 590.2500
 590.3125
 590.3750
 590.4375
 590.5000
 590.5625
 590.6250
 590.6875
 590.7500
 590.8125
 590.8750
 590.9375
 591.0000
 591.0625
 591.1250
 591.1875
 591.2500
 591.3125
 591.3750
 591.4375
 591.5000
 591.5625
 591.6250
 591.6875
 591.7500
 591.8125
 591.8750
 591.9375
 592.0000
 592.0625
 592.1250
 592.1875
 592.2500
 592.3125
 592.3750
 592.4375
 592.5000
 592.5625
 592.6250
 592.6875
 592.7500
 592.8125
 592.8750
 592.9375
 593.0000
 593.0625
 593.1250
 593.1875
 593.2500
 593.3125
 593.3750
 593.4375
 593.5000
 593.5625
 593.6250
 593.6875
 593.7500
 593.8125
 593.8750
 593.9375
 594.0000
 594.0625
 594.1250
 594.1875
 594.2500
 594.3125
 594.3750
 594.4375
 594.5000
 594.5625
 594.6250
 594.6875
 594.7500
 594.8125
 594.8750
 594.9375
 595.0000
 595.0625
 595.1250
 595.1875
 595.2500
 595.3125
 595.3750
 595.4375
 595.5000
 595.5625
 595.6250
 595.6875
 595.7500
 595.8125
 595.8750
 595.9375
 596.0000
 596.0625
 596.1250
 596.1875
 596.2500
 596.3125
 596.3750
 596.4375
 596.5000
 596.5625
 596.6250
 596.6875
 596.7500
 596.8125
 596.8750
 596.9375
 597.0000
 597.0625
 597.1250
 597.1875
 597.2500
 597.3125
 597.3750
 597.4375
 597.5000
 597.5625
 597.6250
 597.6875
 597.7500
 597.8125
 597.8750
 597.9375
 598.0000
 598.0625
 598.1250
 598.1875
 598.2500
 598.3125
 598.3750
 598.4375
 598.5000
 598.5625
 598.6250
 598.6875
 598.7500
 598.8125
 598.8750
 598.9375
 599.0000
 599.0625
 599.1250
 599.1875
 599.2500
 599.3125
 599.3750
 599.4375
 599.5000
 599.5625
 599.6250
 599.6875
 599.7500
 599.8125
 599.8750
 599.9375
 600.0000
 600.0625
 600.1250
 600.1875
 600.2500
 600.3125
 600.3750
 600.4375
 600.5000
 600.5625
 600.6250
 600.6875
 600.7500
 600.8125
 600.8750
 600.9375
 601.0000
 601.0625
 601.1250
 601.1875
 601.2500
 601.3125
 601.3750
 601.4375
 601.5000
 601.5625
 601.6250
 601.6875
 601.7500
 601.8125
 601.8750
 601.9375
 602.0000
 602.0625
 602.1250
 602.1875
 602.2500
 602.3125
 602.3750
 602.4375
 602.5000
 602.5625
 602.6250
 602.6875
 602.7500
 602.8125
 602.8750
 602.9375
 603.0000
 603.0625
 603.1250
 603.1875
 603.2500
 603.3125
 603.3750
 603.4375
 603.5000
 603.5625
 603.6250
 603.6875
 603.7500
 603.8125
 603.8750
 603.9375
 604.0000
 604.0625
 604.1250
 604.1875
 604.2500
 604.3125
 604.3750
 604.4375
 604.5000
 604.5625
 604.6250
 604.6875
 604.7500
 604.8125
 604.8750
 604.9375
 605.0000
 605.0625
 605.1250
 605.1875
 605.2500
 605.3125
 605.3750
 605.4375
 605.5000
 605.5625
 605.6250
 605.6875
 605.7500
 605.8125
 605.8750
 605.9375
 606.0000
 606.0625
 606.1250
 606.1875
 606.2500
 606.3125
 606.3750
 606.4375
 606.5000
 606.5625
 606.6250
 606.6875
 606.7500
 606.8125
 606.8750
 606.9375
 607.0000
 607.0625
 607.1250
 607.1875
 607.2500
 607.3125
 607.3750
 607.4375
 607.5000
 607.5625
 607.6250
 607.6875
 607.7500
 607.8125
 607.8750
 607.9375
 608.0000
 608.0625
 608.1250
 608.1875
 608.2500
 608.3125
 608.3750
 608.4375
 608.5000
 608.5625
 608.6250
 608.6875
 608.7500
 608.8125
 608.8750
 608.9375
 609.0000
 609.0625
 609.1250
 609.1875
 609.2500
 609.3125
 609.3750
 609.4375
 609.5000
 609.5625
 609.6250
 609.6875
 609.7500
 609.8125
 609.8750
 609.9375
 610.0000
 610.0625
 610.1250
 610.1875
 610.2500
 610.3125
 610.3750
 610.4375
 610.5000
 610.5625
 610.6250
 610.6875
 610.7500
 610.8125
 610.8750
 610.9375
 611.0000
 611.0625
 611.1250
 611.1875
 611.2500
 611.3125
 611.3750
 611.4375
 611.5000
 611.5625
 611.6250
 611.6875
 611.7500
 611.8125
 611.8750
 611.9375
 612.0000
 612.0625
 612.1250
 612.1875
 612.2500
 612.3125
 612.3750
 612.4375
 612.5000
 612.5625
 612.6250
 612.6875
 612.7500
 612.8125
 612.8750
 612.9375
 613.0000
 613.0625
 613.1250
 613.1875
 613.2500
 613.3125
 613.3750
 613.4375
 613.5000
 613.5625
 613.6250
 613.6875
 613.7500
 613.8125
 613.8750
 613.9375
 614.0000
 614.0625
 614.1250
 614.1875
 614.2500
 614.3125
 614.3750
 614.4375
 614.5000
 614.5625
 614.6250
 614.6875
 614.7500
 614.8125
 614.8750
 614.9375
 615.0000
 615.0625
 615.1250
 615.1875
 615.2500
 615.3125
 615.3750
 615.4375
 615.5000
 615.5625
 615.6250
 615.6875
 615.7500
 615.8125
 615.8750
 615.9375
 616.0000
 616.0625
 616.1250
 616.1875
 616.2500
 616.3125
 616.3750
 616.4375
 616.5000
 616.5625
 616.6250
 616.6875
 616.7500
 616.8125
 616.8750
 616.9375
 617.0000
 617.0625
 617.1250
 617.1875
 617.2500
 617.3125
 617.3750
 617.4375
 617.5000
 617.5625
 617.6250
 617.6875
 617.7500
 617.8125
 617.8750
 617.9375
 618.0000
 618.0625
 618.1250
 618.1875
 618.2500
 618.3125
 618.3750
 618.4375
 618.5000
 618.5625
 618.6250
 618.6875
 618.7500
 618.8125
 618.8750
 618.9375
 619.0000
 619.0625
 619.1250
 619.1875
 619.2500
 619.3125
 619.3750
 619.4375
 619.5000
 619.5625
 619.6250
 619.6875
 619.7500
 619.8125
 619.8750
 619.9375
 620.0000
 620.0625
 620.1250
 620.1875
 620.2500
 620.3125
 620.3750
 620.4375
 620.5000
 620.5625
 620.6250
 620.6875
 620.7500
 620.8125
 620.8750
 620.9375
 621.0000
 621.0625
 621.1250
 621.1875
 621.2500
 621.3125
 621.3750
 621.4375
 621.5000
 621.5625
 621.6250
 621.6875
 621.7500
 621.8125
 621.8750
 621.9375
 622.0000
 622.0625
 622.1250
 622.1875
 622.2500
 622.3125
 622.3750
 622.4375
 622.5000
 622.5625
 622.6250
 622.6875
 622.7500
 622.8125
 622.8750
 622.9375
 623.0000
 623.0625
 623.1250
 623.1875
 623.2500
 623.3125
 623.3750
 623.4375
 623.5000
 623.5625
 623.6250
 623.6875
 623.7500
 623.8125
 623.8750
 623.9375
 624.0000
 624.0625
 624.1250
 624.1875
 624.2500
 624.3125
 624.3750
 624.4375
 624.5000
 624.5625
 624.6250
 624.6875
 624.7500
 624.8125
 624.8750
 624.9375
 625.0000
 625.0625
 625.1250
 625.1875
 625.2500
 625.3125
 625.3750
 625.4375
 625.5000
 625.5625
 625.6250
 625.6875
 625.7500
 625.8125
 625.8750
 625.9375
 626.0000
 626.0625
 626.1250
 626.1875
 626.2500
 626.3125
 626.3750
 626.4375
 626.5000
 626.5625
 626.6250
 626.6875
 626.7500
 626.8125
 626.8750
 626.9375
 627.0000
 627.0625
 627.1250
 627.1875
 627.2500
 627.3125
 627.3750
 627.4375
 627.5000
 627.5625
 627.6250
 627.6875
 627.7500
 627.8125
 627.8750
 627.9375
 628.0000
 628.0625
 628.1250
 628.1875
 628.2500
 628.3125
 628.3750
 628.4375
 628.5000
 628.5625
 628.6250
 628.6875
 628.7500
 628.8125
 628.8750
 628.9375
 629.0000
 629.0625
 629.1250
 629.1875
 629.2500
 629.3125
 629.3750
 629.4375
 629.5000
 629.5625
 629.6250
 629.6875
 629.7500
 629.8125
 629.8750
 629.9375
 630.0000
 630.0625
 630.1250
 630.1875
 630.2500
 630.3125
 630.3750
 630.4375
 630.5000
 630.5625
 630.6250
 630.6875
 630.7500
 630.8125
 630.8750
 630.9375
 631.0000
 631.0625
 631.1250
 631.1875
 631.2500
 631.3125
 631.3750
 631.4375
 631.5000
 631.5625
 631.6250
 631.6875
 631.7500
 631.8125
 631.8750
 631.9375
 632.0000
 632.0625
 632.1250
 632.1875
 632.2500
 632.3125
 632.3750
 632.4375
 632.5000
 632.5625
 632.6250
 632.6875
 632.7500
 632.8125
 632.8750
 632.9375
 633.0000
 633.0625
 633.1250
 633.1875
 633.2500
 633.3125
 633.3750
 633.4375
 633.5000
 633.5625
 633.6250
 633.6875
 633.7500
 633.8125
 633.8750
 633.9375
 634.0000
 634.0625
 634.1250
 634.1875
 634.2500
 634.3125
 634.3750
 634.4375
 634.5000
 634.5625
 634.6250
 634.6875
 634.7500
 634.8125
 634.8750
 634.9375
 635.0000
 635.0625
 635.1250
 635.1875
 635.2500
 635.3125
 635.3750
 635.4375
 635.5000
 635.5625
 635.6250
 635.6875
 635.7500
 635.8125
 635.8750
 635.9375
 636.0000
 636.0625
 636.1250
 636.1875
 636.2500
 636.3125
 636.3750
 636.4375
 636.5000
 636.5625
 636.6250
 636.6875
 636.7500
 636.8125
 636.8750
 636.9375
 637.0000
 637.0625
 637.1250
 637.1875
 637.2500
 637.3125
 637.3750
 637.4375
 637.5000
 637.5625
 637.6250
 637.6875
 637.7500
 637.8125
 637.8750
 637.9375
 638.0000
 638.0625
 638.1250
 638.1875
 638.2500
 638.3125
 638.3750
 638.4375
 638.5000
 638.5625
 638.6250
 638.6875
 638.7500
 638.8125
 638.8750
 638.9375
 639.0000
 639.0625
 639.1250
 639.1875
 639.2500
 639.3125
 639.3750
 639.4375
 639.5000
 639.5625
 639.6250
 639.6875
 639.7500
 639.8125
 639.8750
 639.9375
 640.0000
 640.0625
 640.1250
 640.1875
 640.2500
 640.3125
 640.3750
 640.4375
 640.5000
 640.5625
 640.6250
 640.6875
 640.7500
 640.8125
 640.8750
 640.9375
 641.0000
 641.0625
 641.1250
 641.1875
 641.2500
 641.3125
 641.3750
 641.4375
 641.5000
 641.5625
 641.6250
 641.6875
 641.7500
 641.8125
 641.8750
 641.9375
 642.0000
 642.0625
 642.1250
 642.1875
 642.2500
 642.3125
 642.3750
 642.4375
 642.5000
 642.5625
 642.6250
 642.6875
 642.7500
 642.8125
 642.8750
 642.9375
 643.0000
 643.0625
 643.1250
 643.1875
 643.2500
 643.3125
 643.3750
 643.4375
 643.5000
 643.5625
 643.6250
 643.6875
 643.7500
 643.8125
 643.8750
 643.9375
 644.0000
 644.0625
 644.1250
 644.1875
 644.2500
 644.3125
 644.3750
 644.4375
 644.5000
 644.5625
 644.6250
 644.6875
 644.7500
 644.8125
 644.8750
 644.9375
 645.0000
 645.0625
 645.1250
 645.1875
 645.2500
 645.3125
 645.3750
 645.4375
 645.5000
 645.5625
 645.6250
 645.6875
 645.7500
 645.8125
 645.8750
 645.9375
 646.0000
 646.0625
 646.1250
 646.1875
 646.2500
 646.3125
 646.3750
 646.4375
 646.5000
 646.5625
 646.6250
 646.6875
 646.7500
 646.8125
 646.8750
 646.9375
 647.0000
 647.0625
 647.1250
 647.1875
 647.2500
 647.3125
 647.3750
 647.4375
 647.5000
 647.5625
 647.6250
 647.6875
 647.7500
 647.8125
 647.8750
 647.9375
 648.0000
 648.0625
 648.1250
 648.1875
 648.2500
 648.3125
 648.3750
 648.4375
 648.5000
 648.5625
 648.6250
 648.6875
 648.7500
 648.8125
 648.8750
 648.9375
 649.0000
 649.0625
 649.1250
 649.1875
 649.2500
 649.3125
 649.3750
 649.4375
 649.5000
 649.5625
 649.6250
 649.6875
 649.7500
 649.8125
 649.8750
 649.9375
 650.0000
 650.0625
 650.1250
 650.1875
 650.2500
 650.3125
 650.3750
 650.4375
 650.5000
 650.5625
 650.6250
 650.6875
 650.7500
 650.8125
 650.8750
 650.9375
 651.0000
 651.0625
 651.1250
 651.1875
 651.2500
 651.3125
 651.3750
 651.4375
 651.5000
 651.5625
 651.6250
 651.6875
 651.7500
 651.8125
 651.8750
 651.9375
 652.0000
 652.0625
 652.1250
 652.1875
 652.2500
 652.3125
 652.3750
 652.4375
 652.5000
 652.5625
 652.6250
 652.6875
 652.7500
 652.8125
 652.8750
 652.9375
 653.0000
 653.0625
 653.1250
 653.1875
 653.2500
 653.3125
 653.3750
 653.4375
 653.5000
 653.5625
 653.6250
 653.6875
 653.7500
 653.8125
 653.8750
 653.9375
 654.0000
 654.0625
 654.1250
 654.1875
 654.2500
 654.3125
 654.3750
 654.4375
 654.5000
 654.5625
 654.6250
 654.6875
 654.7500
 654.8125
 654.8750
 654.9375
 655.0000
 655.0625
 655.1250
 655.1875
 655.2500
 655.3125
 655.3750
 655.4375
 655.5000
 655.5625
 655.6250
 655.6875
 655.7500
 655.8125
 655.8750
 655.9375
 656.0000
 656.0625
 656.1250
 656.1875
 656.2500
 656.3125
 656.3750
 656.4375
 656.5000
 656.5625
 656.6250
 656.6875
 656.7500
 656.8125
 656.8750
 656.9375
 657.0000
 657.0625
 657.1250
 657.1875
 657.2500
 657.3125
 657.3750
 657.4375
 657.5000
 657.5625
 657.6250
 657.6875
 657.7500
 657.8125
 657.8750
 657.9375
 658.0000
 658.0625
 658.1250
 658.1875
 658.2500
 658.3125
 658.3750
 658.4375
 658.5000
 658.5625
 658.6250
 658.6875
 658.7500
 658.8125
 658.8750
 658.9375
 659.0000
 659.0625
 659.1250
 659.1875
 659.2500
 659.3125
 659.3750
 659.4375
 659.5000
 659.5625
 659.6250
 659.6875
 659.7500
 659.8125
 659.8750
 659.9375
 660.0000
 660.0625
 660.1250
 660.1875
 660.2500
 660.3125
 660.3750
 660.4375
 660.5000
 660.5625
 660.6250
 660.6875
 660.7500
 660.8125
 660.8750
 660.9375
 661.0000
 661.0625
 661.1250
 661.1875
 661.2500
 661.3125
 661.3750
 661.4375
 661.5000
 661.5625
 661.6250
 661.6875
 661.7500
 661.8125
 661.8750
 661.9375
 662.0000
 662.0625
 662.1250
 662.1875
 662.2500
 662.3125
 662.3750
 662.4375
 662.5000
 662.5625
 662.6250
 662.6875
 662.7500
 662.8125
 662.8750
 662.9375
 663.0000
 663.0625
 663.1250
 663.1875
 663.2500
 663.3125
 663.3750
 663.4375
 663.5000
 663.5625
 663.6250
 663.6875
 663.7500
 663.8125
 663.8750
 663.9375
 664.0000
 664.0625
 664.1250
 664.1875
 664.2500
 664.3125
 664.3750
 664.4375
 664.5000
 664.5625
 664.6250
 664.6875
 664.7500
 664.8125
 664.8750
 664.9375
 665.0000
 665.0625
 665.1250
 665.1875
 665.2500
 665.3125
 665.3750
 665.4375
 665.5000
 665.5625
 665.6250
 665.6875
 665.7500
 665.8125
 665.8750
 665.9375
 666.0000
 666.0625
 666.1250
 666.1875
 666.2500
 666.3125
 666.3750
 666.4375
 666.5000
 666.5625
 666.6250
 666.6875
 666.7500
 666.8125
 666.8750
 666.9375
 667.0000
 667.0625
 667.1250
 667.1875
 667.2500
 667.3125
 667.3750
 667.4375
 667.5000
 667.5625
 667.6250
 667.6875
 667.7500
 667.8125
 667.8750
 667.9375
 668.0000
 668.0625
 668.1250
 668.1875
 668.2500
 668.3125
 668.3750
 668.4375
 668.5000
 668.5625
 668.6250
 668.6875
 668.7500
 668.8125
 668.8750
 668.9375
 669.0000
 669.0625
 669.1250
 669.1875
 669.2500
 669.3125
 669.3750
 669.4375
 669.5000
 669.5625
 669.6250
 669.6875
 669.7500
 669.8125
 669.8750
 669.9375
 670.0000
 670.0625
 670.1250
 670.1875
 670.2500
 670.3125
 670.3750
 670.4375
 670.5000
 670.5625
 670.6250
 670.6875
 670.7500
 670.8125
 670.8750
 670.9375
 671.0000
 671.0625
 671.1250
 671.1875
 671.2500
 671.3125
 671.3750
 671.4375
 671.5000
 671.5625
 671.6250
 671.6875
 671.7500
 671.8125
 671.8750
 671.9375
 672.0000
 672.0625
 672.1250
 672.1875
 672.2500
 672.3125
 672.3750
 672.4375
 672.5000
 672.5625
 672.6250
 672.6875
 672.7500
 672.8125
 672.8750
 672.9375
 673.0000
 673.0625
 673.1250
 673.1875
 673.2500
 673.3125
 673.3750
 673.4375
 673.5000
 673.5625
 673.6250
 673.6875
 673.7500
 673.8125
 673.8750
 673.9375
 674.0000
 674.0625
 674.1250
 674.1875
 674.2500
 674.3125
 674.3750
 674.4375
 674.5000
 674.5625
 674.6250
 674.6875
 674.7500
 674.8125
 674.8750
 674.9375
 675.0000
 675.0625
 675.1250
 675.1875
 675.2500
 675.3125
 675.3750
 675.4375
 675.5000
 675.5625
 675.6250
 675.6875
 675.7500
 675.8125
 675.8750
 675.9375
 676.0000
 676.0625
 676.1250
 676.1875
 676.2500
 676.3125
 676.3750
 676.4375
 676.5000
 676.5625
 676.6250
 676.6875
 676.7500
 676.8125
 676.8750
 676.9375
 677.0000
 677.0625
 677.1250
 677.1875
 677.2500
 677.3125
 677.3750
 677.4375
 677.5000
 677.5625
 677.6250
 677.6875
 677.7500
 677.8125
 677.8750
 677.9375
 678.0000
 678.0625
 678.1250
 678.1875
 678.2500
 678.3125
 678.3750
 678.4375
 678.5000
 678.5625
 678.6250
 678.6875
 678.7500
 678.8125
 678.8750
 678.9375
 679.0000
 679.0625
 679.1250
 679.1875
 679.2500
 679.3125
 679.3750
 679.4375
 679.5000
 679.5625
 679.6250
 679.6875
 679.7500
 679.8125
 679.8750
 679.9375
 680.0000
 680.0625
 680.1250
 680.1875
 680.2500
 680.3125
 680.3750
 680.4375
 680.5000
 680.5625
 680.6250
 680.6875
 680.7500
 680.8125
 680.8750
 680.9375
 681.0000
 681.0625
 681.1250
 681.1875
 681.2500
 681.3125
 681.3750
 681.4375
 681.5000
 681.5625
 681.6250
 681.6875
 681.7500
 681.8125
 681.8750
 681.9375
 682.0000
 682.0625
 682.1250
 682.1875
 682.2500
 682.3125
 682.3750
 682.4375
 682.5000
 682.5625
 682.6250
 682.6875
 682.7500
 682.8125
 682.8750
 682.9375
 683.0000
 683.0625
 683.1250
 683.1875
 683.2500
 683.3125
 683.3750
 683.4375
 683.5000
 683.5625
 683.6250
 683.6875
 683.7500
 683.8125
 683.8750
 683.9375
 684.0000
 684.0625
 684.1250
 684.1875
 684.2500
 684.3125
 684.3750
 684.4375
 684.5000
 684.5625
 684.6250
 684.6875
 684.7500
 684.8125
 684.8750
 684.9375
 685.0000
 685.0625
 685.1250
 685.1875
 685.2500
 685.3125
 685.3750
 685.4375
 685.5000
 685.5625
 685.6250
 685.6875
 685.7500
 685.8125
 685.8750
 685.9375
 686.0000
 686.0625
 686.1250
 686.1875
 686.2500
 686.3125
 686.3750
 686.4375
 686.5000
 686.5625
 686.6250
 686.6875
 686.7500
 686.8125
 686.8750
 686.9375
 687.0000
 687.0625
 687.1250
 687.1875
 687.2500
 687.3125
 687.3750
 687.4375
 687.5000
 687.5625
 687.6250
 687.6875
 687.7500
 687.8125
 687.8750
 687.9375
 688.0000
 688.0625
 688.1250
 688.1875
 688.2500
 688.3125
 688.3750
 688.4375
 688.5000
 688.5625
 688.6250
 688.6875
 688.7500
 688.8125
 688.8750
 688.9375
 689.0000
 689.0625
 689.1250
 689.1875
 689.2500
 689.3125
 689.3750
 689.4375
 689.5000
 689.5625
 689.6250
 689.6875
 689.7500
 689.8125
 689.8750
 689.9375
 690.0000
 690.0625
 690.1250
 690.1875
 690.2500
 690.3125
 690.3750
 690.4375
 690.5000
 690.5625
 690.6250
 690.6875
 690.7500
 690.8125
 690.8750
 690.9375
 691.0000
 691.0625
 691.1250
 691.1875
 691.2500
 691.3125
 691.3750
 691.4375
 691.5000
 691.5625
 691.6250
 691.6875
 691.7500
 691.8125
 691.8750
 691.9375
 692.0000
 692.0625
 692.1250
 692.1875
 692.2500
 692.3125
 692.3750
 692.4375
 692.5000
 692.5625
 692.6250
 692.6875
 692.7500
 692.8125
 692.8750
 692.9375
 693.0000
 693.0625
 693.1250
 693.1875
 693.2500
 693.3125
 693.3750
 693.4375
 693.5000
 693.5625
 693.6250
 693.6875
 693.7500
 693.8125
 693.8750
 693.9375
 694.0000
 694.0625
 694.1250
 694.1875
 694.2500
 694.3125
 694.3750
 694.4375
 694.5000
 694.5625
 694.6250
 694.6875
 694.7500
 694.8125
 694.8750
 694.9375
 695.0000
 695.0625
 695.1250
 695.1875
 695.2500
 695.3125
 695.3750
 695.4375
 695.5000
 695.5625
 695.6250
 695.6875
 695.7500
 695.8125
 695.8750
 695.9375
 696.0000
 696.0625
 696.1250
 696.1875
 696.2500
 696.3125
 696.3750
 696.4375
 696.5000
 696.5625
 696.6250
 696.6875
 696.7500
 696.8125
 696.8750
 696.9375
 697.0000
 697.0625
 697.1250
 697.1875
 697.2500
 697.3125
 697.3750
 697.4375
 697.5000
 697.5625
 697.6250
 697.6875
 697.7500
 697.8125
 697.8750
 697.9375
 698.0000
 698.0625
 698.1250
 698.1875
 698.2500
 698.3125
 698.3750
 698.4375
 698.5000
 698.5625
 698.6250
 698.6875
 698.7500
 698.8125
 698.8750
 698.9375
 699.0000
 699.0625
 699.1250
 699.1875
 699.2500
 699.3125
 699.3750
 699.4375
 699.5000
 699.5625
 699.6250
 699.6875
 699.7500
 699.8125
 699.8750
 699.9375
 700.0000
 700.0625
 700.1250
 700.1875
 700.2500
 700.3125
 700.3750
 700.4375
 700.5000
 700.5625
 700.6250
 700.6875
 700.7500
 700.8125
 700.8750
 700.9375
 701.0000
 701.0625
 701.1250
 701.1875
 701.2500
 701.3125
 701.3750
 701.4375
 701.5000
 701.5625
 701.6250
 701.6875
 701.7500
 701.8125
 701.8750
 701.9375
 702.0000
 702.0625
 702.1250
 702.1875
 702.2500
 702.3125
 702.3750
 702.4375
 702.5000
 702.5625
 702.6250
 702.6875
 702.7500
 702.8125
 702.8750
 702.9375
 703.0000
 703.0625
 703.1250
 703.1875
 703.2500
 703.3125
 703.3750
 703.4375
 703.5000
 703.5625
 703.6250
 703.6875
 703.7500
 703.8125
 703.8750
 703.9375
 704.0000
 704.0625
 704.1250
 704.1875
 704.2500
 704.3125
 704.3750
 704.4375
 704.5000
 704.5625
 704.6250
 704.6875
 704.7500
 704.8125
 704.8750
 704.9375
 705.0000
 705.0625
 705.1250
 705.1875
 705.2500
 705.3125
 705.3750
 705.4375
 705.5000
 705.5625
 705.6250
 705.6875
 705.7500
 705.8125
 705.8750
 705.9375
 706.0000
 706.0625
 706.1250
 706.1875
 706.2500
 706.3125
 706.3750
 706.4375
 706.5000
 706.5625
 706.6250
 706.6875
 706.7500
 706.8125
 706.8750
 706.9375
 707.0000
 707.0625
 707.1250
 707.1875
 707.2500
 707.3125
 707.3750
 707.4375
 707.5000
 707.5625
 707.6250
 707.6875
 707.7500
 707.8125
 707.8750
 707.9375
 708.0000
 708.0625
 708.1250
 708.1875
 708.2500
 708.3125
 708.3750
 708.4375
 708.5000
 708.5625
 708.6250
 708.6875
 708.7500
 708.8125
 708.8750
 708.9375
 709.0000
 709.0625
 709.1250
 709.1875
 709.2500
 709.3125
 709.3750
 709.4375
 709.5000
 709.5625
 709.6250
 709.6875
 709.7500
 709.8125
 709.8750
 709.9375
 710.0000
 710.0625
 710.1250
 710.1875
 710.2500
 710.3125
 710.3750
 710.4375
 710.5000
 710.5625
 710.6250
 710.6875
 710.7500
 710.8125
 710.8750
 710.9375
 711.0000
 711.0625
 711.1250
 711.1875
 711.2500
 711.3125
 711.3750
 711.4375
 711.5000
 711.5625
 711.6250
 711.6875
 711.7500
 711.8125
 711.8750
 711.9375
 712.0000
 712.0625
 712.1250
 712.1875
 712.2500
 712.3125
 712.3750
 712.4375
 712.5000
 712.5625
 712.6250
 712.6875
 712.7500
 712.8125
 712.8750
 712.9375
 713.0000
 713.0625
 713.1250
 713.1875
 713.2500
 713.3125
 713.3750
 713.4375
 713.5000
 713.5625
 713.6250
 713.6875
 713.7500
 713.8125
 713.8750
 713.9375
 714.0000
 714.0625
 714.1250
 714.1875
 714.2500
 714.3125
 714.3750
 714.4375
 714.5000
 714.5625
 714.6250
 714.6875
 714.7500
 714.8125
 714.8750
 714.9375
 715.0000
 715.0625
 715.1250
 715.1875
 715.2500
 715.3125
 715.3750
 715.4375
 715.5000
 715.5625
 715.6250
 715.6875
 715.7500
 715.8125
 715.8750
 715.9375
 716.0000
 716.0625
 716.1250
 716.1875
 716.2500
 716.3125
 716.3750
 716.4375
 716.5000
 716.5625
 716.6250
 716.6875
 716.7500
 716.8125
 716.8750
 716.9375
 717.0000
 717.0625
 717.1250
 717.1875
 717.2500
 717.3125
 717.3750
 717.4375
 717.5000
 717.5625
 717.6250
 717.6875
 717.7500
 717.8125
 717.8750
 717.9375
 718.0000
 718.0625
 718.1250
 718.1875
 718.2500
 718.3125
 718.3750
 718.4375
 718.5000
 718.5625
 718.6250
 718.6875
 718.7500
 718.8125
 718.8750
 718.9375
 719.0000
 719.0625
 719.1250
 719.1875
 719.2500
 719.3125
 719.3750
 719.4375
 719.5000
 719.5625
 719.6250
 719.6875
 719.7500
 719.8125
 719.8750
 719.9375
 720.0000
 720.0625
 720.1250
 720.1875
 720.2500
 720.3125
 720.3750
 720.4375
 720.5000
 720.5625
 720.6250
 720.6875
 720.7500
 720.8125
 720.8750
 720.9375
 721.0000
 721.0625
 721.1250
 721.1875
 721.2500
 721.3125
 721.3750
 721.4375
 721.5000
 721.5625
 721.6250
 721.6875
 721.7500
 721.8125
 721.8750
 721.9375
 722.0000
 722.0625
 722.1250
 722.1875
 722.2500
 722.3125
 722.3750
 722.4375
 722.5000
 722.5625
 722.6250
 722.6875
 722.7500
 722.8125
 722.8750
 722.9375
 723.0000
 723.0625
 723.1250
 723.1875
 723.2500
 723.3125
 723.3750
 723.4375
 723.5000
 723.5625
 723.6250
 723.6875
 723.7500
 723.8125
 723.8750
 723.9375
 724.0000
 724.0625
 724.1250
 724.1875
 724.2500
 724.3125
 724.3750
 724.4375
 724.5000
 724.5625
 724.6250
 724.6875
 724.7500
 724.8125
 724.8750
 724.9375
 725.0000
 725.0625
 725.1250
 725.1875
 725.2500
 725.3125
 725.3750
 725.4375
 725.5000
 725.5625
 725.6250
 725.6875
 725.7500
 725.8125
 725.8750
 725.9375
 726.0000
 726.0625
 726.1250
 726.1875
 726.2500
 726.3125
 726.3750
 726.4375
 726.5000
 726.5625
 726.6250
 726.6875
 726.7500
 726.8125
 726.8750
 726.9375
 727.0000
 727.0625
 727.1250
 727.1875
 727.2500
 727.3125
 727.3750
 727.4375
 727.5000
 727.5625
 727.6250
 727.6875
 727.7500
 727.8125
 727.8750
 727.9375
 728.0000
 728.0625
 728.1250
 728.1875
 728.2500
 728.3125
 728.3750
 728.4375
 728.5000
 728.5625
 728.6250
 728.6875
 728.7500
 728.8125
 728.8750
 728.9375
 729.0000
 729.0625
 729.1250
 729.1875
 729.2500
 729.3125
 729.3750
 729.4375
 729.5000
 729.5625
 729.6250
 729.6875
 729.7500
 729.8125
 729.8750
 729.9375
 730.0000
 730.0625
 730.1250
 730.1875
 730.2500
 730.3125
 730.3750
 730.4375
 730.5000
 730.5625
 730.6250
 730.6875
 730.7500
 730.8125
 730.8750
 730.9375
 731.0000
 731.0625
 731.1250
 731.1875
 731.2500
 731.3125
 731.3750
 731.4375
 731.5000
 731.5625
 731.6250
 731.6875
 731.7500
 731.8125
 731.8750
 731.9375
 732.0000
 732.0625
 732.1250
 732.1875
 732.2500
 732.3125
 732.3750
 732.4375
 732.5000
 732.5625
 732.6250
 732.6875
 732.7500
 732.8125
 732.8750
 732.9375
 733.0000
 733.0625
 733.1250
 733.1875
 733.2500
 733.3125
 733.3750
 733.4375
 733.5000
 733.5625
 733.6250
 733.6875
 733.7500
 733.8125
 733.8750
 733.9375
 734.0000
 734.0625
 734.1250
 734.1875
 734.2500
 734.3125
 734.3750
 734.4375
 734.5000
 734.5625
 734.6250
 734.6875
 734.7500
 734.8125
 734.8750
 734.9375
 735.0000
 735.0625
 735.1250
 735.1875
 735.2500
 735.3125
 735.3750
 735.4375
 735.5000
 735.5625
 735.6250
 735.6875
 735.7500
 735.8125
 735.8750
 735.9375
 736.0000
 736.0625
 736.1250
 736.1875
 736.2500
 736.3125
 736.3750
 736.4375
 736.5000
 736.5625
 736.6250
 736.6875
 736.7500
 736.8125
 736.8750
 736.9375
 737.0000
 737.0625
 737.1250
 737.1875
 737.2500
 737.3125
 737.3750
 737.4375
 737.5000
 737.5625
 737.6250
 737.6875
 737.7500
 737.8125
 737.8750
 737.9375
 738.0000
 738.0625
 738.1250
 738.1875
 738.2500
 738.3125
 738.3750
 738.4375
 738.5000
 738.5625
 738.6250
 738.6875
 738.7500
 738.8125
 738.8750
 738.9375
 739.0000
 739.0625
 739.1250
 739.1875
 739.2500
 739.3125
 739.3750
 739.4375
 739.5000
 739.5625
 739.6250
 739.6875
 739.7500
 739.8125
 739.8750
 739.9375
 740.0000
 740.0625
 740.1250
 740.1875
 740.2500
 740.3125
 740.3750
 740.4375
 740.5000
 740.5625
 740.6250
 740.6875
 740.7500
 740.8125
 740.8750
 740.9375
 741.0000
 741.0625
 741.1250
 741.1875
 741.2500
 741.3125
 741.3750
 741.4375
 741.5000
 741.5625
 741.6250
 741.6875
 741.7500
 741.8125
 741.8750
 741.9375
 742.0000
 742.0625
 742.1250
 742.1875
 742.2500
 742.3125
 742.3750
 742.4375
 742.5000
 742.5625
 742.6250
 742.6875
 742.7500
 742.8125
 742.8750
 742.9375
 743.0000
 743.0625
 743.1250
 743.1875
 743.2500
 743.3125
 743.3750
 743.4375
 743.5000
 743.5625
 743.6250
 743.6875
 743.7500
 743.8125
 743.8750
 743.9375
 744.0000
 744.0625
 744.1250
 744.1875
 744.2500
 744.3125
 744.3750
 744.4375
 744.5000
 744.5625
 744.6250
 744.6875
 744.7500
 744.8125
 744.8750
 744.9375
 745.0000
 745.0625
 745.1250
 745.1875
 745.2500
 745.3125
 745.3750
 745.4375
 745.5000
 745.5625
 745.6250
 745.6875
 745.7500
 745.8125
 745.8750
 745.9375
 746.0000
 746.0625
 746.1250
 746.1875
 746.2500
 746.3125
 746.3750
 746.4375
 746.5000
 746.5625
 746.6250
 746.6875
 746.7500
 746.8125
 746.8750
 746.9375
 747.0000
 747.0625
 747.1250
 747.1875
 747.2500
 747.3125
 747.3750
 747.4375
 747.5000
 747.5625
 747.6250
 747.6875
 747.7500
 747.8125
 747.8750
 747.9375
 748.0000
 748.0625
 748.1250
 748.1875
 748.2500
 748.3125
 748.3750
 748.4375
 748.5000
 748.5625
 748.6250
 748.6875
 748.7500
 748.8125
 748.8750
 748.9375
 749.0000
 749.0625
 749.1250
 749.1875
 749.2500
 749.3125
 749.3750
 749.4375
 749.5000
 749.5625
 749.6250
 749.6875
 749.7500
 749.8125
 749.8750
 749.9375
 750.0000
 750.0625
 750.1250
 750.1875
 750.2500
 750.3125
 750.3750
 750.4375
 750.5000
 750.5625
 750.6250
 750.6875
 750.7500
 750.8125
 750.8750
 750.9375
 751.0000
 751.0625
 751.1250
 751.1875
 751.2500
 751.3125
 751.3750
 751.4375
 751.5000
 751.5625
 751.6250
 751.6875
 751.7500
 751.8125
 751.8750
 751.9375
 752.0000
 752.0625
 752.1250
 752.1875
 752.2500
 752.3125
 752.3750
 752.4375
 752.5000
 752.5625
 752.6250
 752.6875
 752.7500
 752.8125
 752.8750
 752.9375
 753.0000
 753.0625
 753.1250
 753.1875
 753.2500
 753.3125
 753.3750
 753.4375
 753.5000
 753.5625
 753.6250
 753.6875
 753.7500
 753.8125
 753.8750
 753.9375
 754.0000
 754.0625
 754.1250
 754.1875
 754.2500
 754.3125
 754.3750
 754.4375
 754.5000
 754.5625
 754.6250
 754.6875
 754.7500
 754.8125
 754.8750
 754.9375
 755.0000
 755.0625
 755.1250
 755.1875
 755.2500
 755.3125
 755.3750
 755.4375
 755.5000
 755.5625
 755.6250
 755.6875
 755.7500
 755.8125
 755.8750
 755.9375
 756.0000
 756.0625
 756.1250
 756.1875
 756.2500
 756.3125
 756.3750
 756.4375
 756.5000
 756.5625
 756.6250
 756.6875
 756.7500
 756.8125
 756.8750
 756.9375
 757.0000
 757.0625
 757.1250
 757.1875
 757.2500
 757.3125
 757.3750
 757.4375
 757.5000
 757.5625
 757.6250
 757.6875
 757.7500
 757.8125
 757.8750
 757.9375
 758.0000
 758.0625
 758.1250
 758.1875
 758.2500
 758.3125
 758.3750
 758.4375
 758.5000
 758.5625
 758.6250
 758.6875
 758.7500
 758.8125
 758.8750
 758.9375
 759.0000
 759.0625
 759.1250
 759.1875
 759.2500
 759.3125
 759.3750
 759.4375
 759.5000
 759.5625
 759.6250
 759.6875
 759.7500
 759.8125
 759.8750
 759.9375
 760.0000
 760.0625
 760.1250
 760.1875
 760.2500
 760.3125
 760.3750
 760.4375
 760.5000
 760.5625
 760.6250
 760.6875
 760.7500
 760.8125
 760.8750
 760.9375
 761.0000
 761.0625
 761.1250
 761.1875
 761.2500
 761.3125
 761.3750
 761.4375
 761.5000
 761.5625
 761.6250
 761.6875
 761.7500
 761.8125
 761.8750
 761.9375
 762.0000
 762.0625
 762.1250
 762.1875
 762.2500
 762.3125
 762.3750
 762.4375
 762.5000
 762.5625
 762.6250
 762.6875
 762.7500
 762.8125
 762.8750
 762.9375
 763.0000
 763.0625
 763.1250
 763.1875
 763.2500
 763.3125
 763.3750
 763.4375
 763.5000
 763.5625
 763.6250
 763.6875
 763.7500
 763.8125
 763.8750
 763.9375
 764.0000
 764.0625
 764.1250
 764.1875
 764.2500
 764.3125
 764.3750
 764.4375
 764.5000
 764.5625
 764.6250
 764.6875
 764.7500
 764.8125
 764.8750
 764.9375
 765.0000
 765.0625
 765.1250
 765.1875
 765.2500
 765.3125
 765.3750
 765.4375
 765.5000
 765.5625
 765.6250
 765.6875
 765.7500
 765.8125
 765.8750
 765.9375
 766.0000
 766.0625
 766.1250
 766.1875
 766.2500
 766.3125
 766.3750
 766.4375
 766.5000
 766.5625
 766.6250
 766.6875
 766.7500
 766.8125
 766.8750
 766.9375
 767.0000
 767.0625
 767.1250
 767.1875
 767.2500
 767.3125
 767.3750
 767.4375
 767.5000
 767.5625
 767.6250
 767.6875
 767.7500
 767.8125
 767.8750
 767.9375
 768.0000
 768.0625
 768.1250
 768.1875
 768.2500
 768.3125
 768.3750
 768.4375
 768.5000
 768.5625
 768.6250
 768.6875
 768.7500
 768.8125
 768.8750
 768.9375
 769.0000
 769.0625
 769.1250
 769.1875
 769.2500
 769.3125
 769.3750
 769.4375
 769.5000
 769.5625
 769.6250
 769.6875
 769.7500
 769.8125
 769.8750
 769.9375
 770.0000
 770.0625
 770.1250
 770.1875
 770.2500
 770.3125
 770.3750
 770.4375
 770.5000
 770.5625
 770.6250
 770.6875
 770.7500
 770.8125
 770.8750
 770.9375
 771.0000
 771.0625
 771.1250
 771.1875
 771.2500
 771.3125
 771.3750
 771.4375
 771.5000
 771.5625
 771.6250
 771.6875
 771.7500
 771.8125
 771.8750
 771.9375
 772.0000
 772.0625
 772.1250
 772.1875
 772.2500
 772.3125
 772.3750
 772.4375
 772.5000
 772.5625
 772.6250
 772.6875
 772.7500
 772.8125
 772.8750
 772.9375
 773.0000
 773.0625
 773.1250
 773.1875
 773.2500
 773.3125
 773.3750
 773.4375
 773.5000
 773.5625
 773.6250
 773.6875
 773.7500
 773.8125
 773.8750
 773.9375
 774.0000
 774.0625
 774.1250
 774.1875
 774.2500
 774.3125
 774.3750
 774.4375
 774.5000
 774.5625
 774.6250
 774.6875
 774.7500
 774.8125
 774.8750
 774.9375
 775.0000
 775.0625
 775.1250
 775.1875
 775.2500
 775.3125
 775.3750
 775.4375
 775.5000
 775.5625
 775.6250
 775.6875
 775.7500
 775.8125
 775.8750
 775.9375
 776.0000
 776.0625
 776.1250
 776.1875
 776.2500
 776.3125
 776.3750
 776.4375
 776.5000
 776.5625
 776.6250
 776.6875
 776.7500
 776.8125
 776.8750
 776.9375
 777.0000
 777.0625
 777.1250
 777.1875
 777.2500
 777.3125
 777.3750
 777.4375
 777.5000
 777.5625
 777.6250
 777.6875
 777.7500
 777.8125
 777.8750
 777.9375
 778.0000
 778.0625
 778.1250
 778.1875
 778.2500
 778.3125
 778.3750
 778.4375
 778.5000
 778.5625
 778.6250
 778.6875
 778.7500
 778.8125
 778.8750
 778.9375
 779.0000
 779.0625
 779.1250
 779.1875
 779.2500
 779.3125
 779.3750
 779.4375
 779.5000
 779.5625
 779.6250
 779.6875
 779.7500
 779.8125
 779.8750
 779.9375
 780.0000
 780.0625
 780.1250
 780.1875
 780.2500
 780.3125
 780.3750
 780.4375
 780.5000
 780.5625
 780.6250
 780.6875
 780.7500
 780.8125
 780.8750
 780.9375
 781.0000
 781.0625
 781.1250
 781.1875
 781.2500
 781.3125
 781.3750
 781.4375
 781.5000
 781.5625
 781.6250
 781.6875
 781.7500
 781.8125
 781.8750
 781.9375
 782.0000
 782.0625
 782.1250
 782.1875
 782.2500
 782.3125
 782.3750
 782.4375
 782.5000
 782.5625
 782.6250
 782.6875
 782.7500
 782.8125
 782.8750
 782.9375
 783.0000
 783.0625
 783.1250
 783.1875
 783.2500
 783.3125
 783.3750
 783.4375
 783.5000
 783.5625
 783.6250
 783.6875
 783.7500
 783.8125
 783.8750
 783.9375
 784.0000
 784.0625
 784.1250
 784.1875
 784.2500
 784.3125
 784.3750
 784.4375
 784.5000
 784.5625
 784.6250
 784.6875
 784.7500
 784.8125
 784.8750
 784.9375
 785.0000
 785.0625
 785.1250
 785.1875
 785.2500
 785.3125
 785.3750
 785.4375
 785.5000
 785.5625
 785.6250
 785.6875
 785.7500
 785.8125
 785.8750
 785.9375
 786.0000
 786.0625
 786.1250
 786.1875
 786.2500
 786.3125
 786.3750
 786.4375
 786.5000
 786.5625
 786.6250
 786.6875
 786.7500
 786.8125
 786.8750
 786.9375
 787.0000
 787.0625
 787.1250
 787.1875
 787.2500
 787.3125
 787.3750
 787.4375
 787.5000
 787.5625
 787.6250
 787.6875
 787.7500
 787.8125
 787.8750
 787.9375
 788.0000
 788.0625
 788.1250
 788.1875
 788.2500
 788.3125
 788.3750
 788.4375
 788.5000
 788.5625
 788.6250
 788.6875
 788.7500
 788.8125
 788.8750
 788.9375
 789.0000
 789.0625
 789.1250
 789.1875
 789.2500
 789.3125
 789.3750
 789.4375
 789.5000
 789.5625
 789.6250
 789.6875
 789.7500
 789.8125
 789.8750
 789.9375
 790.0000
 790.0625
 790.1250
 790.1875
 790.2500
 790.3125
 790.3750
 790.4375
 790.5000
 790.5625
 790.6250
 790.6875
 790.7500
 790.8125
 790.8750
 790.9375
 791.0000
 791.0625
 791.1250
 791.1875
 791.2500
 791.3125
 791.3750
 791.4375
 791.5000
 791.5625
 791.6250
 791.6875
 791.7500
 791.8125
 791.8750
 791.9375
 792.0000
 792.0625
 792.1250
 792.1875
 792.2500
 792.3125
 792.3750
 792.4375
 792.5000
 792.5625
 792.6250
 792.6875
 792.7500
 792.8125
 792.8750
 792.9375
 793.0000
 793.0625
 793.1250
 793.1875
 793.2500
 793.3125
 793.3750
 793.4375
 793.5000
 793.5625
 793.6250
 793.6875
 793.7500
 793.8125
 793.8750
 793.9375
 794.0000
 794.0625
 794.1250
 794.1875
 794.2500
 794.3125
 794.3750
 794.4375
 794.5000
 794.5625
 794.6250
 794.6875
 794.7500
 794.8125
 794.8750
 794.9375
 795.0000
 795.0625
 795.1250
 795.1875
 795.2500
 795.3125
 795.3750
 795.4375
 795.5000
 795.5625
 795.6250
 795.6875
 795.7500
 795.8125
 795.8750
 795.9375
 796.0000
 796.0625
 796.1250
 796.1875
 796.2500
 796.3125
 796.3750
 796.4375
 796.5000
 796.5625
 796.6250
 796.6875
 796.7500
 796.8125
 796.8750
 796.9375
 797.0000
 797.0625
 797.1250
 797.1875
 797.2500
 797.3125
 797.3750
 797.4375
 797.5000
 797.5625
 797.6250
 797.6875
 797.7500
 797.8125
 797.8750
 797.9375
 798.0000
 798.0625
 798.1250
 798.1875
 798.2500
 798.3125
 798.3750
 798.4375
 798.5000
 798.5625
 798.6250
 798.6875
 798.7500
 798.8125
 798.8750
 798.9375
 799.0000
 799.0625
 799.1250
 799.1875
 799.2500
 799.3125
 799.3750
 799.4375
 799.5000
 799.5625
 799.6250
 799.6875
 799.7500
 799.8125
 799.8750
 799.9375
 800.0000
